Memory Length,4000,
Trigger Level,2.56900e+00,
Source,CH1,
Probe,1.0X,
Vertical Units,V,
Vertical Scale,5.00000e-02,
Vertical Position,6.00000e-02,
Horizontal Units,S,
Horizontal Scale,2.50000e-02,
Horizontal Position,7.8890000e+00,
Horizontal Mode,Main,
Sampling Period,1.00000e-04,
Firmware,V1.14,
Time, ,
Mode,Detail,
Waveform Data,
7.689000e+0,-3.60e-2,
7.689100e+0,-3.60e-2,
7.689200e+0,-3.60e-2,
7.689300e+0,-3.20e-2,
7.689400e+0,-3.20e-2,
7.689500e+0,-3.40e-2,
7.689600e+0,-3.40e-2,
7.689700e+0,-3.80e-2,
7.689800e+0,-3.80e-2,
7.689900e+0,-3.40e-2,
7.690000e+0,-3.40e-2,
7.690100e+0,-3.40e-2,
7.690200e+0,-3.40e-2,
7.690300e+0,-3.40e-2,
7.690400e+0,-3.40e-2,
7.690500e+0,-3.60e-2,
7.690600e+0,-3.60e-2,
7.690700e+0,-3.60e-2,
7.690800e+0,-3.60e-2,
7.690900e+0,-3.40e-2,
7.691000e+0,-3.40e-2,
7.691100e+0,-3.20e-2,
7.691200e+0,-3.20e-2,
7.691300e+0,-3.60e-2,
7.691400e+0,-3.60e-2,
7.691500e+0,-3.40e-2,
7.691600e+0,-3.40e-2,
7.691700e+0,-3.40e-2,
7.691800e+0,-3.40e-2,
7.691900e+0,-3.60e-2,
7.692000e+0,-3.60e-2,
7.692100e+0,-3.40e-2,
7.692200e+0,-3.40e-2,
7.692300e+0,-3.40e-2,
7.692400e+0,-3.40e-2,
7.692500e+0,-3.40e-2,
7.692600e+0,-3.40e-2,
7.692700e+0,-3.40e-2,
7.692800e+0,-3.40e-2,
7.692900e+0,-3.40e-2,
7.693000e+0,-3.40e-2,
7.693100e+0,-3.40e-2,
7.693200e+0,-3.40e-2,
7.693300e+0,-3.40e-2,
7.693400e+0,-3.40e-2,
7.693500e+0,-3.60e-2,
7.693600e+0,-3.60e-2,
7.693700e+0,-3.60e-2,
7.693800e+0,-3.60e-2,
7.693900e+0,-3.60e-2,
7.694000e+0,-3.60e-2,
7.694100e+0,-3.60e-2,
7.694200e+0,-3.60e-2,
7.694300e+0,-3.40e-2,
7.694400e+0,-3.40e-2,
7.694500e+0,-3.60e-2,
7.694600e+0,-3.60e-2,
7.694700e+0,-3.40e-2,
7.694800e+0,-3.40e-2,
7.694900e+0,-3.60e-2,
7.695000e+0,-3.60e-2,
7.695100e+0,-3.60e-2,
7.695200e+0,-3.60e-2,
7.695300e+0,-3.60e-2,
7.695400e+0,-3.60e-2,
7.695500e+0,-3.60e-2,
7.695600e+0,-3.60e-2,
7.695700e+0,-3.40e-2,
7.695800e+0,-3.40e-2,
7.695900e+0,-3.40e-2,
7.696000e+0,-3.40e-2,
7.696100e+0,-3.60e-2,
7.696200e+0,-3.60e-2,
7.696300e+0,-3.60e-2,
7.696400e+0,-3.60e-2,
7.696500e+0,-3.60e-2,
7.696600e+0,-3.60e-2,
7.696700e+0,-3.40e-2,
7.696800e+0,-3.40e-2,
7.696900e+0,-3.40e-2,
7.697000e+0,-3.40e-2,
7.697100e+0,-3.60e-2,
7.697200e+0,-3.60e-2,
7.697300e+0,-3.20e-2,
7.697400e+0,-3.20e-2,
7.697500e+0,-3.40e-2,
7.697600e+0,-3.40e-2,
7.697700e+0,-3.60e-2,
7.697800e+0,-3.60e-2,
7.697900e+0,-3.60e-2,
7.698000e+0,-3.60e-2,
7.698100e+0,-3.40e-2,
7.698200e+0,-3.40e-2,
7.698300e+0,-3.40e-2,
7.698400e+0,-3.40e-2,
7.698500e+0,-3.40e-2,
7.698600e+0,-3.40e-2,
7.698700e+0,-3.60e-2,
7.698800e+0,-3.60e-2,
7.698900e+0,-3.60e-2,
7.699000e+0,-3.60e-2,
7.699100e+0,-3.80e-2,
7.699200e+0,-3.80e-2,
7.699300e+0,-3.60e-2,
7.699400e+0,-3.60e-2,
7.699500e+0,-3.40e-2,
7.699600e+0,-3.40e-2,
7.699700e+0,-3.60e-2,
7.699800e+0,-3.60e-2,
7.699900e+0,-3.60e-2,
7.700000e+0,-3.60e-2,
7.700100e+0,-3.60e-2,
7.700200e+0,-3.60e-2,
7.700300e+0,-3.40e-2,
7.700400e+0,-3.40e-2,
7.700500e+0,-3.60e-2,
7.700600e+0,-3.60e-2,
7.700700e+0,-3.60e-2,
7.700800e+0,-3.60e-2,
7.700900e+0,-3.40e-2,
7.701000e+0,-3.40e-2,
7.701100e+0,-3.60e-2,
7.701200e+0,-3.60e-2,
7.701300e+0,-3.60e-2,
7.701400e+0,-3.60e-2,
7.701500e+0,-3.40e-2,
7.701600e+0,-3.40e-2,
7.701700e+0,-3.40e-2,
7.701800e+0,-3.40e-2,
7.701900e+0,-3.60e-2,
7.702000e+0,-3.60e-2,
7.702100e+0,-3.60e-2,
7.702200e+0,-3.60e-2,
7.702300e+0,-3.60e-2,
7.702400e+0,-3.60e-2,
7.702500e+0,-3.60e-2,
7.702600e+0,-3.60e-2,
7.702700e+0,-3.40e-2,
7.702800e+0,-3.40e-2,
7.702900e+0,-3.40e-2,
7.703000e+0,-3.40e-2,
7.703100e+0,-3.60e-2,
7.703200e+0,-3.60e-2,
7.703300e+0,-3.60e-2,
7.703400e+0,-3.60e-2,
7.703500e+0,-3.60e-2,
7.703600e+0,-3.60e-2,
7.703700e+0,-3.60e-2,
7.703800e+0,-3.60e-2,
7.703900e+0,-3.40e-2,
7.704000e+0,-3.40e-2,
7.704100e+0,-3.40e-2,
7.704200e+0,-3.40e-2,
7.704300e+0,-3.40e-2,
7.704400e+0,-3.40e-2,
7.704500e+0,-3.60e-2,
7.704600e+0,-3.60e-2,
7.704700e+0,-3.80e-2,
7.704800e+0,-3.80e-2,
7.704900e+0,-3.80e-2,
7.705000e+0,-3.80e-2,
7.705100e+0,-3.40e-2,
7.705200e+0,-3.40e-2,
7.705300e+0,-3.40e-2,
7.705400e+0,-3.40e-2,
7.705500e+0,-3.60e-2,
7.705600e+0,-3.60e-2,
7.705700e+0,-3.60e-2,
7.705800e+0,-3.60e-2,
7.705900e+0,-3.60e-2,
7.706000e+0,-3.60e-2,
7.706100e+0,-3.60e-2,
7.706200e+0,-3.60e-2,
7.706300e+0,-3.80e-2,
7.706400e+0,-3.80e-2,
7.706500e+0,-3.60e-2,
7.706600e+0,-3.60e-2,
7.706700e+0,-3.60e-2,
7.706800e+0,-3.60e-2,
7.706900e+0,-3.80e-2,
7.707000e+0,-3.80e-2,
7.707100e+0,-3.40e-2,
7.707200e+0,-3.40e-2,
7.707300e+0,-3.80e-2,
7.707400e+0,-3.80e-2,
7.707500e+0,-3.60e-2,
7.707600e+0,-3.60e-2,
7.707700e+0,-3.60e-2,
7.707800e+0,-3.60e-2,
7.707900e+0,-3.60e-2,
7.708000e+0,-3.60e-2,
7.708100e+0,-3.80e-2,
7.708200e+0,-3.80e-2,
7.708300e+0,-3.60e-2,
7.708400e+0,-3.60e-2,
7.708500e+0,-3.60e-2,
7.708600e+0,-3.60e-2,
7.708700e+0,-3.60e-2,
7.708800e+0,-3.60e-2,
7.708900e+0,-3.60e-2,
7.709000e+0,-3.60e-2,
7.709100e+0,-3.60e-2,
7.709200e+0,-3.60e-2,
7.709300e+0,-3.20e-2,
7.709400e+0,-3.20e-2,
7.709500e+0,-3.40e-2,
7.709600e+0,-3.40e-2,
7.709700e+0,-3.80e-2,
7.709800e+0,-3.80e-2,
7.709900e+0,-3.60e-2,
7.710000e+0,-3.60e-2,
7.710100e+0,-3.60e-2,
7.710200e+0,-3.60e-2,
7.710300e+0,-3.60e-2,
7.710400e+0,-3.60e-2,
7.710500e+0,-3.60e-2,
7.710600e+0,-3.60e-2,
7.710700e+0,-3.60e-2,
7.710800e+0,-3.60e-2,
7.710900e+0,-3.60e-2,
7.711000e+0,-3.60e-2,
7.711100e+0,-3.60e-2,
7.711200e+0,-3.60e-2,
7.711300e+0,-3.60e-2,
7.711400e+0,-3.60e-2,
7.711500e+0,-3.80e-2,
7.711600e+0,-3.80e-2,
7.711700e+0,-3.80e-2,
7.711800e+0,-3.80e-2,
7.711900e+0,-3.60e-2,
7.712000e+0,-3.60e-2,
7.712100e+0,-3.60e-2,
7.712200e+0,-3.60e-2,
7.712300e+0,-3.80e-2,
7.712400e+0,-3.80e-2,
7.712500e+0,-3.40e-2,
7.712600e+0,-3.40e-2,
7.712700e+0,-3.80e-2,
7.712800e+0,-3.80e-2,
7.712900e+0,-3.40e-2,
7.713000e+0,-3.40e-2,
7.713100e+0,-3.60e-2,
7.713200e+0,-3.60e-2,
7.713300e+0,-3.60e-2,
7.713400e+0,-3.60e-2,
7.713500e+0,-3.80e-2,
7.713600e+0,-3.80e-2,
7.713700e+0,-3.60e-2,
7.713800e+0,-3.60e-2,
7.713900e+0,-3.80e-2,
7.714000e+0,-3.80e-2,
7.714100e+0,-3.60e-2,
7.714200e+0,-3.60e-2,
7.714300e+0,-3.60e-2,
7.714400e+0,-3.60e-2,
7.714500e+0,-3.40e-2,
7.714600e+0,-3.40e-2,
7.714700e+0,-3.60e-2,
7.714800e+0,-3.60e-2,
7.714900e+0,-3.60e-2,
7.715000e+0,-3.60e-2,
7.715100e+0,-3.60e-2,
7.715200e+0,-3.60e-2,
7.715300e+0,-3.80e-2,
7.715400e+0,-3.80e-2,
7.715500e+0,-3.80e-2,
7.715600e+0,-3.80e-2,
7.715700e+0,-3.80e-2,
7.715800e+0,-3.80e-2,
7.715900e+0,-3.60e-2,
7.716000e+0,-3.60e-2,
7.716100e+0,-3.80e-2,
7.716200e+0,-3.80e-2,
7.716300e+0,-3.60e-2,
7.716400e+0,-3.60e-2,
7.716500e+0,-3.60e-2,
7.716600e+0,-3.60e-2,
7.716700e+0,-3.60e-2,
7.716800e+0,-3.60e-2,
7.716900e+0,-3.60e-2,
7.717000e+0,-3.60e-2,
7.717100e+0,-3.60e-2,
7.717200e+0,-3.60e-2,
7.717300e+0,-3.60e-2,
7.717400e+0,-3.60e-2,
7.717500e+0,-3.80e-2,
7.717600e+0,-3.80e-2,
7.717700e+0,-3.60e-2,
7.717800e+0,-3.60e-2,
7.717900e+0,-3.80e-2,
7.718000e+0,-3.80e-2,
7.718100e+0,-3.60e-2,
7.718200e+0,-3.60e-2,
7.718300e+0,-3.60e-2,
7.718400e+0,-3.60e-2,
7.718500e+0,-3.40e-2,
7.718600e+0,-3.40e-2,
7.718700e+0,-3.80e-2,
7.718800e+0,-3.80e-2,
7.718900e+0,-3.60e-2,
7.719000e+0,-3.60e-2,
7.719100e+0,-3.60e-2,
7.719200e+0,-3.60e-2,
7.719300e+0,-3.60e-2,
7.719400e+0,-3.60e-2,
7.719500e+0,-3.80e-2,
7.719600e+0,-3.80e-2,
7.719700e+0,-3.60e-2,
7.719800e+0,-3.60e-2,
7.719900e+0,-3.60e-2,
7.720000e+0,-3.60e-2,
7.720100e+0,-3.80e-2,
7.720200e+0,-3.80e-2,
7.720300e+0,-3.80e-2,
7.720400e+0,-3.80e-2,
7.720500e+0,-3.60e-2,
7.720600e+0,-3.60e-2,
7.720700e+0,-3.60e-2,
7.720800e+0,-3.60e-2,
7.720900e+0,-3.80e-2,
7.721000e+0,-3.80e-2,
7.721100e+0,-3.60e-2,
7.721200e+0,-3.60e-2,
7.721300e+0,-3.40e-2,
7.721400e+0,-3.40e-2,
7.721500e+0,-3.80e-2,
7.721600e+0,-3.80e-2,
7.721700e+0,-3.80e-2,
7.721800e+0,-3.80e-2,
7.721900e+0,-3.80e-2,
7.722000e+0,-3.80e-2,
7.722100e+0,-3.80e-2,
7.722200e+0,-3.80e-2,
7.722300e+0,-3.80e-2,
7.722400e+0,-3.80e-2,
7.722500e+0,-3.80e-2,
7.722600e+0,-3.80e-2,
7.722700e+0,-3.80e-2,
7.722800e+0,-3.80e-2,
7.722900e+0,-3.80e-2,
7.723000e+0,-3.80e-2,
7.723100e+0,-3.60e-2,
7.723200e+0,-3.60e-2,
7.723300e+0,-3.80e-2,
7.723400e+0,-3.80e-2,
7.723500e+0,-3.80e-2,
7.723600e+0,-3.80e-2,
7.723700e+0,-3.60e-2,
7.723800e+0,-3.60e-2,
7.723900e+0,-3.60e-2,
7.724000e+0,-3.60e-2,
7.724100e+0,-3.60e-2,
7.724200e+0,-3.60e-2,
7.724300e+0,-3.80e-2,
7.724400e+0,-3.80e-2,
7.724500e+0,-3.60e-2,
7.724600e+0,-3.60e-2,
7.724700e+0,-3.80e-2,
7.724800e+0,-3.80e-2,
7.724900e+0,-3.60e-2,
7.725000e+0,-3.60e-2,
7.725100e+0,-3.60e-2,
7.725200e+0,-3.60e-2,
7.725300e+0,-3.80e-2,
7.725400e+0,-3.80e-2,
7.725500e+0,-3.80e-2,
7.725600e+0,-3.80e-2,
7.725700e+0,-3.80e-2,
7.725800e+0,-3.80e-2,
7.725900e+0,-3.60e-2,
7.726000e+0,-3.60e-2,
7.726100e+0,-3.60e-2,
7.726200e+0,-3.60e-2,
7.726300e+0,-3.80e-2,
7.726400e+0,-3.80e-2,
7.726500e+0,-3.80e-2,
7.726600e+0,-3.80e-2,
7.726700e+0,-3.60e-2,
7.726800e+0,-3.60e-2,
7.726900e+0,-3.80e-2,
7.727000e+0,-3.80e-2,
7.727100e+0,-4.00e-2,
7.727200e+0,-4.00e-2,
7.727300e+0,-3.60e-2,
7.727400e+0,-3.60e-2,
7.727500e+0,-3.80e-2,
7.727600e+0,-3.80e-2,
7.727700e+0,-3.60e-2,
7.727800e+0,-3.60e-2,
7.727900e+0,-3.60e-2,
7.728000e+0,-3.60e-2,
7.728100e+0,-3.80e-2,
7.728200e+0,-3.80e-2,
7.728300e+0,-3.60e-2,
7.728400e+0,-3.60e-2,
7.728500e+0,-3.80e-2,
7.728600e+0,-3.80e-2,
7.728700e+0,-3.60e-2,
7.728800e+0,-3.60e-2,
7.728900e+0,-3.80e-2,
7.729000e+0,-3.80e-2,
7.729100e+0,-3.80e-2,
7.729200e+0,-3.80e-2,
7.729300e+0,-3.60e-2,
7.729400e+0,-3.60e-2,
7.729500e+0,-3.60e-2,
7.729600e+0,-3.60e-2,
7.729700e+0,-3.80e-2,
7.729800e+0,-3.80e-2,
7.729900e+0,-3.60e-2,
7.730000e+0,-3.60e-2,
7.730100e+0,-3.80e-2,
7.730200e+0,-3.80e-2,
7.730300e+0,-3.80e-2,
7.730400e+0,-3.80e-2,
7.730500e+0,-3.80e-2,
7.730600e+0,-3.80e-2,
7.730700e+0,-3.80e-2,
7.730800e+0,-3.80e-2,
7.730900e+0,-3.80e-2,
7.731000e+0,-3.80e-2,
7.731100e+0,-3.80e-2,
7.731200e+0,-3.80e-2,
7.731300e+0,-3.80e-2,
7.731400e+0,-3.80e-2,
7.731500e+0,-3.60e-2,
7.731600e+0,-3.60e-2,
7.731700e+0,-3.80e-2,
7.731800e+0,-3.80e-2,
7.731900e+0,-3.80e-2,
7.732000e+0,-3.80e-2,
7.732100e+0,-3.80e-2,
7.732200e+0,-3.80e-2,
7.732300e+0,-3.80e-2,
7.732400e+0,-3.80e-2,
7.732500e+0,-3.60e-2,
7.732600e+0,-3.60e-2,
7.732700e+0,-4.00e-2,
7.732800e+0,-4.00e-2,
7.732900e+0,-3.80e-2,
7.733000e+0,-3.80e-2,
7.733100e+0,-3.80e-2,
7.733200e+0,-3.80e-2,
7.733300e+0,-3.60e-2,
7.733400e+0,-3.60e-2,
7.733500e+0,-3.60e-2,
7.733600e+0,-3.60e-2,
7.733700e+0,-3.80e-2,
7.733800e+0,-3.80e-2,
7.733900e+0,-3.80e-2,
7.734000e+0,-3.80e-2,
7.734100e+0,-3.60e-2,
7.734200e+0,-3.60e-2,
7.734300e+0,-3.80e-2,
7.734400e+0,-3.80e-2,
7.734500e+0,-3.80e-2,
7.734600e+0,-3.80e-2,
7.734700e+0,-3.80e-2,
7.734800e+0,-3.80e-2,
7.734900e+0,-4.00e-2,
7.735000e+0,-4.00e-2,
7.735100e+0,-3.80e-2,
7.735200e+0,-3.80e-2,
7.735300e+0,-3.80e-2,
7.735400e+0,-3.80e-2,
7.735500e+0,-3.80e-2,
7.735600e+0,-3.80e-2,
7.735700e+0,-3.60e-2,
7.735800e+0,-3.60e-2,
7.735900e+0,-3.60e-2,
7.736000e+0,-3.60e-2,
7.736100e+0,-3.80e-2,
7.736200e+0,-3.80e-2,
7.736300e+0,-4.20e-2,
7.736400e+0,-4.20e-2,
7.736500e+0,-3.60e-2,
7.736600e+0,-3.60e-2,
7.736700e+0,-3.80e-2,
7.736800e+0,-3.80e-2,
7.736900e+0,-3.80e-2,
7.737000e+0,-3.80e-2,
7.737100e+0,-3.80e-2,
7.737200e+0,-3.80e-2,
7.737300e+0,-3.80e-2,
7.737400e+0,-3.80e-2,
7.737500e+0,-3.80e-2,
7.737600e+0,-3.80e-2,
7.737700e+0,-3.60e-2,
7.737800e+0,-3.60e-2,
7.737900e+0,-3.80e-2,
7.738000e+0,-3.80e-2,
7.738100e+0,-3.80e-2,
7.738200e+0,-3.80e-2,
7.738300e+0,-3.80e-2,
7.738400e+0,-3.80e-2,
7.738500e+0,-4.00e-2,
7.738600e+0,-4.00e-2,
7.738700e+0,-3.60e-2,
7.738800e+0,-3.60e-2,
7.738900e+0,-3.80e-2,
7.739000e+0,-3.80e-2,
7.739100e+0,-3.60e-2,
7.739200e+0,-3.60e-2,
7.739300e+0,-4.00e-2,
7.739400e+0,-4.00e-2,
7.739500e+0,-3.80e-2,
7.739600e+0,-3.80e-2,
7.739700e+0,-3.60e-2,
7.739800e+0,-3.60e-2,
7.739900e+0,-3.80e-2,
7.740000e+0,-3.80e-2,
7.740100e+0,-3.80e-2,
7.740200e+0,-3.80e-2,
7.740300e+0,-3.80e-2,
7.740400e+0,-3.80e-2,
7.740500e+0,-4.00e-2,
7.740600e+0,-4.00e-2,
7.740700e+0,-3.80e-2,
7.740800e+0,-3.80e-2,
7.740900e+0,-3.60e-2,
7.741000e+0,-3.60e-2,
7.741100e+0,-3.80e-2,
7.741200e+0,-3.80e-2,
7.741300e+0,-3.80e-2,
7.741400e+0,-3.80e-2,
7.741500e+0,-3.80e-2,
7.741600e+0,-3.80e-2,
7.741700e+0,-3.80e-2,
7.741800e+0,-3.80e-2,
7.741900e+0,-3.80e-2,
7.742000e+0,-3.80e-2,
7.742100e+0,-3.80e-2,
7.742200e+0,-3.80e-2,
7.742300e+0,-3.80e-2,
7.742400e+0,-3.80e-2,
7.742500e+0,-3.80e-2,
7.742600e+0,-3.80e-2,
7.742700e+0,-3.80e-2,
7.742800e+0,-3.80e-2,
7.742900e+0,-4.00e-2,
7.743000e+0,-4.00e-2,
7.743100e+0,-3.80e-2,
7.743200e+0,-3.80e-2,
7.743300e+0,-3.80e-2,
7.743400e+0,-3.80e-2,
7.743500e+0,-3.80e-2,
7.743600e+0,-3.80e-2,
7.743700e+0,-3.80e-2,
7.743800e+0,-3.80e-2,
7.743900e+0,-3.80e-2,
7.744000e+0,-3.80e-2,
7.744100e+0,-4.00e-2,
7.744200e+0,-4.00e-2,
7.744300e+0,-3.80e-2,
7.744400e+0,-3.80e-2,
7.744500e+0,-3.80e-2,
7.744600e+0,-3.80e-2,
7.744700e+0,-3.60e-2,
7.744800e+0,-3.60e-2,
7.744900e+0,-4.00e-2,
7.745000e+0,-4.00e-2,
7.745100e+0,-3.80e-2,
7.745200e+0,-3.80e-2,
7.745300e+0,-3.80e-2,
7.745400e+0,-3.80e-2,
7.745500e+0,-3.80e-2,
7.745600e+0,-3.80e-2,
7.745700e+0,-4.20e-2,
7.745800e+0,-4.20e-2,
7.745900e+0,-4.00e-2,
7.746000e+0,-4.00e-2,
7.746100e+0,-3.80e-2,
7.746200e+0,-3.80e-2,
7.746300e+0,-3.80e-2,
7.746400e+0,-3.80e-2,
7.746500e+0,-3.80e-2,
7.746600e+0,-3.80e-2,
7.746700e+0,-3.80e-2,
7.746800e+0,-3.80e-2,
7.746900e+0,-4.20e-2,
7.747000e+0,-4.20e-2,
7.747100e+0,-3.80e-2,
7.747200e+0,-3.80e-2,
7.747300e+0,-3.80e-2,
7.747400e+0,-3.80e-2,
7.747500e+0,-3.80e-2,
7.747600e+0,-3.80e-2,
7.747700e+0,-3.80e-2,
7.747800e+0,-3.80e-2,
7.747900e+0,-3.80e-2,
7.748000e+0,-3.80e-2,
7.748100e+0,-3.80e-2,
7.748200e+0,-3.80e-2,
7.748300e+0,-3.80e-2,
7.748400e+0,-3.80e-2,
7.748500e+0,-3.80e-2,
7.748600e+0,-3.80e-2,
7.748700e+0,-3.80e-2,
7.748800e+0,-3.80e-2,
7.748900e+0,-3.80e-2,
7.749000e+0,-3.80e-2,
7.749100e+0,-3.80e-2,
7.749200e+0,-3.80e-2,
7.749300e+0,-3.80e-2,
7.749400e+0,-3.80e-2,
7.749500e+0,-3.80e-2,
7.749600e+0,-3.80e-2,
7.749700e+0,-3.80e-2,
7.749800e+0,-3.80e-2,
7.749900e+0,-4.20e-2,
7.750000e+0,-4.20e-2,
7.750100e+0,-4.00e-2,
7.750200e+0,-4.00e-2,
7.750300e+0,-3.80e-2,
7.750400e+0,-3.80e-2,
7.750500e+0,-3.80e-2,
7.750600e+0,-3.80e-2,
7.750700e+0,-3.80e-2,
7.750800e+0,-3.80e-2,
7.750900e+0,-4.00e-2,
7.751000e+0,-4.00e-2,
7.751100e+0,-3.80e-2,
7.751200e+0,-3.80e-2,
7.751300e+0,-4.00e-2,
7.751400e+0,-4.00e-2,
7.751500e+0,-4.00e-2,
7.751600e+0,-4.00e-2,
7.751700e+0,-3.80e-2,
7.751800e+0,-3.80e-2,
7.751900e+0,-3.80e-2,
7.752000e+0,-3.80e-2,
7.752100e+0,-3.80e-2,
7.752200e+0,-3.80e-2,
7.752300e+0,-3.80e-2,
7.752400e+0,-3.80e-2,
7.752500e+0,-3.80e-2,
7.752600e+0,-3.80e-2,
7.752700e+0,-3.80e-2,
7.752800e+0,-3.80e-2,
7.752900e+0,-3.80e-2,
7.753000e+0,-3.80e-2,
7.753100e+0,-3.80e-2,
7.753200e+0,-3.80e-2,
7.753300e+0,-3.80e-2,
7.753400e+0,-3.80e-2,
7.753500e+0,-4.20e-2,
7.753600e+0,-4.20e-2,
7.753700e+0,-3.80e-2,
7.753800e+0,-3.80e-2,
7.753900e+0,-4.00e-2,
7.754000e+0,-4.00e-2,
7.754100e+0,-3.80e-2,
7.754200e+0,-3.80e-2,
7.754300e+0,-3.80e-2,
7.754400e+0,-3.80e-2,
7.754500e+0,-3.80e-2,
7.754600e+0,-3.80e-2,
7.754700e+0,-3.80e-2,
7.754800e+0,-3.80e-2,
7.754900e+0,-4.00e-2,
7.755000e+0,-4.00e-2,
7.755100e+0,-3.80e-2,
7.755200e+0,-3.80e-2,
7.755300e+0,-3.80e-2,
7.755400e+0,-3.80e-2,
7.755500e+0,-4.00e-2,
7.755600e+0,-4.00e-2,
7.755700e+0,-4.00e-2,
7.755800e+0,-4.00e-2,
7.755900e+0,-3.80e-2,
7.756000e+0,-3.80e-2,
7.756100e+0,-4.00e-2,
7.756200e+0,-4.00e-2,
7.756300e+0,-3.80e-2,
7.756400e+0,-3.80e-2,
7.756500e+0,-3.80e-2,
7.756600e+0,-3.80e-2,
7.756700e+0,-3.80e-2,
7.756800e+0,-3.80e-2,
7.756900e+0,-3.80e-2,
7.757000e+0,-3.80e-2,
7.757100e+0,-3.80e-2,
7.757200e+0,-3.80e-2,
7.757300e+0,-4.00e-2,
7.757400e+0,-4.00e-2,
7.757500e+0,-3.80e-2,
7.757600e+0,-3.80e-2,
7.757700e+0,-3.80e-2,
7.757800e+0,-3.80e-2,
7.757900e+0,-3.80e-2,
7.758000e+0,-3.80e-2,
7.758100e+0,-4.00e-2,
7.758200e+0,-4.00e-2,
7.758300e+0,-3.80e-2,
7.758400e+0,-3.80e-2,
7.758500e+0,-4.00e-2,
7.758600e+0,-4.00e-2,
7.758700e+0,-4.20e-2,
7.758800e+0,-4.20e-2,
7.758900e+0,-4.00e-2,
7.759000e+0,-4.00e-2,
7.759100e+0,-3.80e-2,
7.759200e+0,-3.80e-2,
7.759300e+0,-3.80e-2,
7.759400e+0,-3.80e-2,
7.759500e+0,-4.20e-2,
7.759600e+0,-4.20e-2,
7.759700e+0,-4.20e-2,
7.759800e+0,-4.20e-2,
7.759900e+0,-3.80e-2,
7.760000e+0,-3.80e-2,
7.760100e+0,-4.20e-2,
7.760200e+0,-4.20e-2,
7.760300e+0,-4.00e-2,
7.760400e+0,-4.00e-2,
7.760500e+0,-3.80e-2,
7.760600e+0,-3.80e-2,
7.760700e+0,-3.80e-2,
7.760800e+0,-3.80e-2,
7.760900e+0,-3.80e-2,
7.761000e+0,-3.80e-2,
7.761100e+0,-3.80e-2,
7.761200e+0,-3.80e-2,
7.761300e+0,-4.00e-2,
7.761400e+0,-4.00e-2,
7.761500e+0,-3.80e-2,
7.761600e+0,-3.80e-2,
7.761700e+0,-3.80e-2,
7.761800e+0,-3.80e-2,
7.761900e+0,-3.80e-2,
7.762000e+0,-3.80e-2,
7.762100e+0,-4.20e-2,
7.762200e+0,-4.20e-2,
7.762300e+0,-4.20e-2,
7.762400e+0,-4.20e-2,
7.762500e+0,-4.00e-2,
7.762600e+0,-4.00e-2,
7.762700e+0,-4.20e-2,
7.762800e+0,-4.20e-2,
7.762900e+0,-3.80e-2,
7.763000e+0,-3.80e-2,
7.763100e+0,-3.80e-2,
7.763200e+0,-3.80e-2,
7.763300e+0,-4.00e-2,
7.763400e+0,-4.00e-2,
7.763500e+0,-3.80e-2,
7.763600e+0,-3.80e-2,
7.763700e+0,-4.20e-2,
7.763800e+0,-4.20e-2,
7.763900e+0,-3.80e-2,
7.764000e+0,-3.80e-2,
7.764100e+0,-4.20e-2,
7.764200e+0,-4.20e-2,
7.764300e+0,-4.00e-2,
7.764400e+0,-4.00e-2,
7.764500e+0,-4.20e-2,
7.764600e+0,-4.20e-2,
7.764700e+0,-4.00e-2,
7.764800e+0,-4.00e-2,
7.764900e+0,-3.80e-2,
7.765000e+0,-3.80e-2,
7.765100e+0,-3.80e-2,
7.765200e+0,-3.80e-2,
7.765300e+0,-4.00e-2,
7.765400e+0,-4.00e-2,
7.765500e+0,-4.00e-2,
7.765600e+0,-4.00e-2,
7.765700e+0,-3.80e-2,
7.765800e+0,-3.80e-2,
7.765900e+0,-4.00e-2,
7.766000e+0,-4.00e-2,
7.766100e+0,-4.20e-2,
7.766200e+0,-4.20e-2,
7.766300e+0,-3.80e-2,
7.766400e+0,-3.80e-2,
7.766500e+0,-4.20e-2,
7.766600e+0,-4.20e-2,
7.766700e+0,-4.00e-2,
7.766800e+0,-4.00e-2,
7.766900e+0,-4.00e-2,
7.767000e+0,-4.00e-2,
7.767100e+0,-3.80e-2,
7.767200e+0,-3.80e-2,
7.767300e+0,-4.20e-2,
7.767400e+0,-4.20e-2,
7.767500e+0,-4.20e-2,
7.767600e+0,-4.20e-2,
7.767700e+0,-4.00e-2,
7.767800e+0,-4.00e-2,
7.767900e+0,-4.00e-2,
7.768000e+0,-4.00e-2,
7.768100e+0,-4.00e-2,
7.768200e+0,-4.00e-2,
7.768300e+0,-3.80e-2,
7.768400e+0,-3.80e-2,
7.768500e+0,-4.00e-2,
7.768600e+0,-4.00e-2,
7.768700e+0,-4.20e-2,
7.768800e+0,-4.20e-2,
7.768900e+0,-4.00e-2,
7.769000e+0,-4.00e-2,
7.769100e+0,-4.20e-2,
7.769200e+0,-4.20e-2,
7.769300e+0,-3.80e-2,
7.769400e+0,-3.80e-2,
7.769500e+0,-4.00e-2,
7.769600e+0,-4.00e-2,
7.769700e+0,-4.00e-2,
7.769800e+0,-4.00e-2,
7.769900e+0,-3.80e-2,
7.770000e+0,-3.80e-2,
7.770100e+0,-4.20e-2,
7.770200e+0,-4.20e-2,
7.770300e+0,-4.00e-2,
7.770400e+0,-4.00e-2,
7.770500e+0,-4.20e-2,
7.770600e+0,-4.20e-2,
7.770700e+0,-4.20e-2,
7.770800e+0,-4.20e-2,
7.770900e+0,-4.00e-2,
7.771000e+0,-4.00e-2,
7.771100e+0,-3.80e-2,
7.771200e+0,-3.80e-2,
7.771300e+0,-4.00e-2,
7.771400e+0,-4.00e-2,
7.771500e+0,-4.00e-2,
7.771600e+0,-4.00e-2,
7.771700e+0,-4.20e-2,
7.771800e+0,-4.20e-2,
7.771900e+0,-4.20e-2,
7.772000e+0,-4.20e-2,
7.772100e+0,-3.80e-2,
7.772200e+0,-3.80e-2,
7.772300e+0,-4.00e-2,
7.772400e+0,-4.00e-2,
7.772500e+0,-4.00e-2,
7.772600e+0,-4.00e-2,
7.772700e+0,-4.20e-2,
7.772800e+0,-4.20e-2,
7.772900e+0,-4.00e-2,
7.773000e+0,-4.00e-2,
7.773100e+0,-4.00e-2,
7.773200e+0,-4.00e-2,
7.773300e+0,-3.80e-2,
7.773400e+0,-3.80e-2,
7.773500e+0,-4.20e-2,
7.773600e+0,-4.20e-2,
7.773700e+0,-4.00e-2,
7.773800e+0,-4.00e-2,
7.773900e+0,-3.80e-2,
7.774000e+0,-3.80e-2,
7.774100e+0,-4.20e-2,
7.774200e+0,-4.20e-2,
7.774300e+0,-4.20e-2,
7.774400e+0,-4.20e-2,
7.774500e+0,-4.00e-2,
7.774600e+0,-4.00e-2,
7.774700e+0,-4.20e-2,
7.774800e+0,-4.20e-2,
7.774900e+0,-4.20e-2,
7.775000e+0,-4.20e-2,
7.775100e+0,-4.00e-2,
7.775200e+0,-4.00e-2,
7.775300e+0,-4.00e-2,
7.775400e+0,-4.00e-2,
7.775500e+0,-4.20e-2,
7.775600e+0,-4.20e-2,
7.775700e+0,-3.80e-2,
7.775800e+0,-3.80e-2,
7.775900e+0,-4.00e-2,
7.776000e+0,-4.00e-2,
7.776100e+0,-4.20e-2,
7.776200e+0,-4.20e-2,
7.776300e+0,-4.20e-2,
7.776400e+0,-4.20e-2,
7.776500e+0,-4.00e-2,
7.776600e+0,-4.00e-2,
7.776700e+0,-3.80e-2,
7.776800e+0,-3.80e-2,
7.776900e+0,-4.00e-2,
7.777000e+0,-4.00e-2,
7.777100e+0,-4.00e-2,
7.777200e+0,-4.00e-2,
7.777300e+0,-4.20e-2,
7.777400e+0,-4.20e-2,
7.777500e+0,-4.00e-2,
7.777600e+0,-4.00e-2,
7.777700e+0,-4.00e-2,
7.777800e+0,-4.00e-2,
7.777900e+0,-4.00e-2,
7.778000e+0,-4.00e-2,
7.778100e+0,-4.00e-2,
7.778200e+0,-4.00e-2,
7.778300e+0,-4.20e-2,
7.778400e+0,-4.20e-2,
7.778500e+0,-4.00e-2,
7.778600e+0,-4.00e-2,
7.778700e+0,-4.20e-2,
7.778800e+0,-4.20e-2,
7.778900e+0,-4.20e-2,
7.779000e+0,-4.20e-2,
7.779100e+0,-4.00e-2,
7.779200e+0,-4.00e-2,
7.779300e+0,-4.20e-2,
7.779400e+0,-4.20e-2,
7.779500e+0,-4.20e-2,
7.779600e+0,-4.20e-2,
7.779700e+0,-4.20e-2,
7.779800e+0,-4.20e-2,
7.779900e+0,-4.20e-2,
7.780000e+0,-4.20e-2,
7.780100e+0,-4.20e-2,
7.780200e+0,-4.20e-2,
7.780300e+0,-4.20e-2,
7.780400e+0,-4.20e-2,
7.780500e+0,-4.00e-2,
7.780600e+0,-4.00e-2,
7.780700e+0,-4.20e-2,
7.780800e+0,-4.20e-2,
7.780900e+0,-4.00e-2,
7.781000e+0,-4.00e-2,
7.781100e+0,-4.00e-2,
7.781200e+0,-4.00e-2,
7.781300e+0,-4.20e-2,
7.781400e+0,-4.20e-2,
7.781500e+0,-4.00e-2,
7.781600e+0,-4.00e-2,
7.781700e+0,-3.80e-2,
7.781800e+0,-3.80e-2,
7.781900e+0,-4.20e-2,
7.782000e+0,-4.20e-2,
7.782100e+0,-4.20e-2,
7.782200e+0,-4.20e-2,
7.782300e+0,-4.20e-2,
7.782400e+0,-4.20e-2,
7.782500e+0,-4.40e-2,
7.782600e+0,-4.40e-2,
7.782700e+0,-4.00e-2,
7.782800e+0,-4.00e-2,
7.782900e+0,-4.20e-2,
7.783000e+0,-4.20e-2,
7.783100e+0,-3.80e-2,
7.783200e+0,-3.80e-2,
7.783300e+0,-3.80e-2,
7.783400e+0,-3.80e-2,
7.783500e+0,-3.80e-2,
7.783600e+0,-3.80e-2,
7.783700e+0,-4.20e-2,
7.783800e+0,-4.20e-2,
7.783900e+0,-4.00e-2,
7.784000e+0,-4.00e-2,
7.784100e+0,-4.20e-2,
7.784200e+0,-4.20e-2,
7.784300e+0,-3.80e-2,
7.784400e+0,-3.80e-2,
7.784500e+0,-3.80e-2,
7.784600e+0,-3.80e-2,
7.784700e+0,-4.00e-2,
7.784800e+0,-4.00e-2,
7.784900e+0,-4.20e-2,
7.785000e+0,-4.20e-2,
7.785100e+0,-4.20e-2,
7.785200e+0,-4.20e-2,
7.785300e+0,-4.20e-2,
7.785400e+0,-4.20e-2,
7.785500e+0,-4.00e-2,
7.785600e+0,-4.00e-2,
7.785700e+0,-4.20e-2,
7.785800e+0,-4.20e-2,
7.785900e+0,-4.00e-2,
7.786000e+0,-4.00e-2,
7.786100e+0,-4.20e-2,
7.786200e+0,-4.20e-2,
7.786300e+0,-4.20e-2,
7.786400e+0,-4.20e-2,
7.786500e+0,-4.00e-2,
7.786600e+0,-4.00e-2,
7.786700e+0,-4.20e-2,
7.786800e+0,-4.20e-2,
7.786900e+0,-4.20e-2,
7.787000e+0,-4.20e-2,
7.787100e+0,-4.20e-2,
7.787200e+0,-4.20e-2,
7.787300e+0,-4.20e-2,
7.787400e+0,-4.20e-2,
7.787500e+0,-4.00e-2,
7.787600e+0,-4.00e-2,
7.787700e+0,-4.20e-2,
7.787800e+0,-4.20e-2,
7.787900e+0,-4.20e-2,
7.788000e+0,-4.20e-2,
7.788100e+0,-4.20e-2,
7.788200e+0,-4.20e-2,
7.788300e+0,-4.00e-2,
7.788400e+0,-4.00e-2,
7.788500e+0,-4.20e-2,
7.788600e+0,-4.20e-2,
7.788700e+0,-4.20e-2,
7.788800e+0,-4.20e-2,
7.788900e+0,-4.20e-2,
7.789000e+0,-4.20e-2,
7.789100e+0,-4.20e-2,
7.789200e+0,-4.20e-2,
7.789300e+0,-4.00e-2,
7.789400e+0,-4.00e-2,
7.789500e+0,-4.20e-2,
7.789600e+0,-4.20e-2,
7.789700e+0,-4.20e-2,
7.789800e+0,-4.20e-2,
7.789900e+0,-4.00e-2,
7.790000e+0,-4.00e-2,
7.790100e+0,-4.00e-2,
7.790200e+0,-4.00e-2,
7.790300e+0,-4.00e-2,
7.790400e+0,-4.00e-2,
7.790500e+0,-4.00e-2,
7.790600e+0,-4.00e-2,
7.790700e+0,-4.20e-2,
7.790800e+0,-4.20e-2,
7.790900e+0,-4.20e-2,
7.791000e+0,-4.20e-2,
7.791100e+0,-4.00e-2,
7.791200e+0,-4.00e-2,
7.791300e+0,-4.00e-2,
7.791400e+0,-4.00e-2,
7.791500e+0,-4.20e-2,
7.791600e+0,-4.20e-2,
7.791700e+0,-4.00e-2,
7.791800e+0,-4.00e-2,
7.791900e+0,-4.00e-2,
7.792000e+0,-4.00e-2,
7.792100e+0,-4.00e-2,
7.792200e+0,-4.00e-2,
7.792300e+0,-4.00e-2,
7.792400e+0,-4.00e-2,
7.792500e+0,-4.20e-2,
7.792600e+0,-4.20e-2,
7.792700e+0,-4.20e-2,
7.792800e+0,-4.20e-2,
7.792900e+0,-4.20e-2,
7.793000e+0,-4.20e-2,
7.793100e+0,-4.20e-2,
7.793200e+0,-4.20e-2,
7.793300e+0,-4.20e-2,
7.793400e+0,-4.20e-2,
7.793500e+0,-4.40e-2,
7.793600e+0,-4.40e-2,
7.793700e+0,-4.20e-2,
7.793800e+0,-4.20e-2,
7.793900e+0,-4.00e-2,
7.794000e+0,-4.00e-2,
7.794100e+0,-3.80e-2,
7.794200e+0,-3.80e-2,
7.794300e+0,-4.20e-2,
7.794400e+0,-4.20e-2,
7.794500e+0,-4.20e-2,
7.794600e+0,-4.20e-2,
7.794700e+0,-4.00e-2,
7.794800e+0,-4.00e-2,
7.794900e+0,-4.00e-2,
7.795000e+0,-4.00e-2,
7.795100e+0,-4.20e-2,
7.795200e+0,-4.20e-2,
7.795300e+0,-4.20e-2,
7.795400e+0,-4.20e-2,
7.795500e+0,-4.20e-2,
7.795600e+0,-4.20e-2,
7.795700e+0,-4.20e-2,
7.795800e+0,-4.20e-2,
7.795900e+0,-4.20e-2,
7.796000e+0,-4.20e-2,
7.796100e+0,-3.80e-2,
7.796200e+0,-3.80e-2,
7.796300e+0,-4.20e-2,
7.796400e+0,-4.20e-2,
7.796500e+0,-4.20e-2,
7.796600e+0,-4.20e-2,
7.796700e+0,-4.20e-2,
7.796800e+0,-4.20e-2,
7.796900e+0,-4.20e-2,
7.797000e+0,-4.20e-2,
7.797100e+0,-4.00e-2,
7.797200e+0,-4.00e-2,
7.797300e+0,-4.00e-2,
7.797400e+0,-4.00e-2,
7.797500e+0,-4.20e-2,
7.797600e+0,-4.20e-2,
7.797700e+0,-4.20e-2,
7.797800e+0,-4.20e-2,
7.797900e+0,-4.00e-2,
7.798000e+0,-4.00e-2,
7.798100e+0,-4.20e-2,
7.798200e+0,-4.20e-2,
7.798300e+0,-4.40e-2,
7.798400e+0,-4.40e-2,
7.798500e+0,-4.20e-2,
7.798600e+0,-4.20e-2,
7.798700e+0,-4.20e-2,
7.798800e+0,-4.20e-2,
7.798900e+0,-4.20e-2,
7.799000e+0,-4.20e-2,
7.799100e+0,-4.20e-2,
7.799200e+0,-4.20e-2,
7.799300e+0,-4.20e-2,
7.799400e+0,-4.20e-2,
7.799500e+0,-4.00e-2,
7.799600e+0,-4.00e-2,
7.799700e+0,-4.00e-2,
7.799800e+0,-4.00e-2,
7.799900e+0,-4.20e-2,
7.800000e+0,-4.20e-2,
7.800100e+0,-4.20e-2,
7.800200e+0,-4.20e-2,
7.800300e+0,-4.00e-2,
7.800400e+0,-4.00e-2,
7.800500e+0,-4.40e-2,
7.800600e+0,-4.40e-2,
7.800700e+0,-4.20e-2,
7.800800e+0,-4.20e-2,
7.800900e+0,-4.20e-2,
7.801000e+0,-4.20e-2,
7.801100e+0,-4.20e-2,
7.801200e+0,-4.20e-2,
7.801300e+0,-4.20e-2,
7.801400e+0,-4.20e-2,
7.801500e+0,-4.40e-2,
7.801600e+0,-4.40e-2,
7.801700e+0,-4.00e-2,
7.801800e+0,-4.00e-2,
7.801900e+0,-4.20e-2,
7.802000e+0,-4.20e-2,
7.802100e+0,-4.40e-2,
7.802200e+0,-4.40e-2,
7.802300e+0,-4.20e-2,
7.802400e+0,-4.20e-2,
7.802500e+0,-4.20e-2,
7.802600e+0,-4.20e-2,
7.802700e+0,-4.40e-2,
7.802800e+0,-4.40e-2,
7.802900e+0,-4.20e-2,
7.803000e+0,-4.20e-2,
7.803100e+0,-4.40e-2,
7.803200e+0,-4.40e-2,
7.803300e+0,-4.20e-2,
7.803400e+0,-4.20e-2,
7.803500e+0,-4.00e-2,
7.803600e+0,-4.00e-2,
7.803700e+0,-4.20e-2,
7.803800e+0,-4.20e-2,
7.803900e+0,-4.20e-2,
7.804000e+0,-4.20e-2,
7.804100e+0,-4.20e-2,
7.804200e+0,-4.20e-2,
7.804300e+0,-4.20e-2,
7.804400e+0,-4.20e-2,
7.804500e+0,-4.20e-2,
7.804600e+0,-4.20e-2,
7.804700e+0,-4.20e-2,
7.804800e+0,-4.20e-2,
7.804900e+0,-4.20e-2,
7.805000e+0,-4.20e-2,
7.805100e+0,-4.20e-2,
7.805200e+0,-4.20e-2,
7.805300e+0,-4.20e-2,
7.805400e+0,-4.20e-2,
7.805500e+0,-4.40e-2,
7.805600e+0,-4.40e-2,
7.805700e+0,-4.20e-2,
7.805800e+0,-4.20e-2,
7.805900e+0,-4.20e-2,
7.806000e+0,-4.20e-2,
7.806100e+0,-4.00e-2,
7.806200e+0,-4.00e-2,
7.806300e+0,-4.20e-2,
7.806400e+0,-4.20e-2,
7.806500e+0,-4.40e-2,
7.806600e+0,-4.40e-2,
7.806700e+0,-4.40e-2,
7.806800e+0,-4.40e-2,
7.806900e+0,-4.20e-2,
7.807000e+0,-4.20e-2,
7.807100e+0,-4.40e-2,
7.807200e+0,-4.40e-2,
7.807300e+0,-4.20e-2,
7.807400e+0,-4.20e-2,
7.807500e+0,-4.40e-2,
7.807600e+0,-4.40e-2,
7.807700e+0,-4.40e-2,
7.807800e+0,-4.40e-2,
7.807900e+0,-4.20e-2,
7.808000e+0,-4.20e-2,
7.808100e+0,-4.20e-2,
7.808200e+0,-4.20e-2,
7.808300e+0,-4.20e-2,
7.808400e+0,-4.20e-2,
7.808500e+0,-4.40e-2,
7.808600e+0,-4.40e-2,
7.808700e+0,-4.20e-2,
7.808800e+0,-4.20e-2,
7.808900e+0,-4.20e-2,
7.809000e+0,-4.20e-2,
7.809100e+0,-4.00e-2,
7.809200e+0,-4.00e-2,
7.809300e+0,-4.40e-2,
7.809400e+0,-4.40e-2,
7.809500e+0,-4.60e-2,
7.809600e+0,-4.60e-2,
7.809700e+0,-4.20e-2,
7.809800e+0,-4.20e-2,
7.809900e+0,-4.40e-2,
7.810000e+0,-4.40e-2,
7.810100e+0,-4.20e-2,
7.810200e+0,-4.20e-2,
7.810300e+0,-4.20e-2,
7.810400e+0,-4.20e-2,
7.810500e+0,-4.40e-2,
7.810600e+0,-4.40e-2,
7.810700e+0,-4.20e-2,
7.810800e+0,-4.20e-2,
7.810900e+0,-4.20e-2,
7.811000e+0,-4.20e-2,
7.811100e+0,-4.20e-2,
7.811200e+0,-4.20e-2,
7.811300e+0,-4.40e-2,
7.811400e+0,-4.40e-2,
7.811500e+0,-4.20e-2,
7.811600e+0,-4.20e-2,
7.811700e+0,-4.00e-2,
7.811800e+0,-4.00e-2,
7.811900e+0,-4.40e-2,
7.812000e+0,-4.40e-2,
7.812100e+0,-4.00e-2,
7.812200e+0,-4.00e-2,
7.812300e+0,-4.20e-2,
7.812400e+0,-4.20e-2,
7.812500e+0,-4.20e-2,
7.812600e+0,-4.20e-2,
7.812700e+0,-4.40e-2,
7.812800e+0,-4.40e-2,
7.812900e+0,-4.20e-2,
7.813000e+0,-4.20e-2,
7.813100e+0,-4.20e-2,
7.813200e+0,-4.20e-2,
7.813300e+0,-4.40e-2,
7.813400e+0,-4.40e-2,
7.813500e+0,-4.40e-2,
7.813600e+0,-4.40e-2,
7.813700e+0,-4.20e-2,
7.813800e+0,-4.20e-2,
7.813900e+0,-4.60e-2,
7.814000e+0,-4.60e-2,
7.814100e+0,-4.20e-2,
7.814200e+0,-4.20e-2,
7.814300e+0,-4.20e-2,
7.814400e+0,-4.20e-2,
7.814500e+0,-4.40e-2,
7.814600e+0,-4.40e-2,
7.814700e+0,-4.20e-2,
7.814800e+0,-4.20e-2,
7.814900e+0,-4.20e-2,
7.815000e+0,-4.20e-2,
7.815100e+0,-4.20e-2,
7.815200e+0,-4.20e-2,
7.815300e+0,-4.60e-2,
7.815400e+0,-4.60e-2,
7.815500e+0,-4.40e-2,
7.815600e+0,-4.40e-2,
7.815700e+0,-4.40e-2,
7.815800e+0,-4.40e-2,
7.815900e+0,-4.40e-2,
7.816000e+0,-4.40e-2,
7.816100e+0,-4.40e-2,
7.816200e+0,-4.40e-2,
7.816300e+0,-4.20e-2,
7.816400e+0,-4.20e-2,
7.816500e+0,-4.40e-2,
7.816600e+0,-4.40e-2,
7.816700e+0,-4.20e-2,
7.816800e+0,-4.20e-2,
7.816900e+0,-4.20e-2,
7.817000e+0,-4.20e-2,
7.817100e+0,-4.20e-2,
7.817200e+0,-4.20e-2,
7.817300e+0,-4.40e-2,
7.817400e+0,-4.40e-2,
7.817500e+0,-4.40e-2,
7.817600e+0,-4.40e-2,
7.817700e+0,-4.20e-2,
7.817800e+0,-4.20e-2,
7.817900e+0,-4.20e-2,
7.818000e+0,-4.20e-2,
7.818100e+0,-4.20e-2,
7.818200e+0,-4.20e-2,
7.818300e+0,-4.20e-2,
7.818400e+0,-4.20e-2,
7.818500e+0,-4.20e-2,
7.818600e+0,-4.20e-2,
7.818700e+0,-4.00e-2,
7.818800e+0,-4.00e-2,
7.818900e+0,-4.40e-2,
7.819000e+0,-4.40e-2,
7.819100e+0,-4.20e-2,
7.819200e+0,-4.20e-2,
7.819300e+0,-4.40e-2,
7.819400e+0,-4.40e-2,
7.819500e+0,-4.40e-2,
7.819600e+0,-4.40e-2,
7.819700e+0,-4.40e-2,
7.819800e+0,-4.40e-2,
7.819900e+0,-4.40e-2,
7.820000e+0,-4.40e-2,
7.820100e+0,-4.40e-2,
7.820200e+0,-4.40e-2,
7.820300e+0,-4.20e-2,
7.820400e+0,-4.20e-2,
7.820500e+0,-4.20e-2,
7.820600e+0,-4.20e-2,
7.820700e+0,-4.40e-2,
7.820800e+0,-4.40e-2,
7.820900e+0,-4.40e-2,
7.821000e+0,-4.40e-2,
7.821100e+0,-4.40e-2,
7.821200e+0,-4.40e-2,
7.821300e+0,-4.40e-2,
7.821400e+0,-4.40e-2,
7.821500e+0,-4.40e-2,
7.821600e+0,-4.40e-2,
7.821700e+0,-4.20e-2,
7.821800e+0,-4.20e-2,
7.821900e+0,-4.40e-2,
7.822000e+0,-4.40e-2,
7.822100e+0,-4.40e-2,
7.822200e+0,-4.40e-2,
7.822300e+0,-4.40e-2,
7.822400e+0,-4.40e-2,
7.822500e+0,-4.20e-2,
7.822600e+0,-4.20e-2,
7.822700e+0,-4.40e-2,
7.822800e+0,-4.40e-2,
7.822900e+0,-4.40e-2,
7.823000e+0,-4.40e-2,
7.823100e+0,-4.40e-2,
7.823200e+0,-4.40e-2,
7.823300e+0,-4.40e-2,
7.823400e+0,-4.40e-2,
7.823500e+0,-4.20e-2,
7.823600e+0,-4.20e-2,
7.823700e+0,-4.40e-2,
7.823800e+0,-4.40e-2,
7.823900e+0,-4.40e-2,
7.824000e+0,-4.40e-2,
7.824100e+0,-4.60e-2,
7.824200e+0,-4.60e-2,
7.824300e+0,-4.20e-2,
7.824400e+0,-4.20e-2,
7.824500e+0,-4.20e-2,
7.824600e+0,-4.20e-2,
7.824700e+0,-4.20e-2,
7.824800e+0,-4.20e-2,
7.824900e+0,-4.40e-2,
7.825000e+0,-4.40e-2,
7.825100e+0,-4.40e-2,
7.825200e+0,-4.40e-2,
7.825300e+0,-4.20e-2,
7.825400e+0,-4.20e-2,
7.825500e+0,-4.40e-2,
7.825600e+0,-4.40e-2,
7.825700e+0,-4.20e-2,
7.825800e+0,-4.20e-2,
7.825900e+0,-4.20e-2,
7.826000e+0,-4.20e-2,
7.826100e+0,-4.60e-2,
7.826200e+0,-4.60e-2,
7.826300e+0,-4.60e-2,
7.826400e+0,-4.60e-2,
7.826500e+0,-4.60e-2,
7.826600e+0,-4.60e-2,
7.826700e+0,-4.20e-2,
7.826800e+0,-4.20e-2,
7.826900e+0,-4.20e-2,
7.827000e+0,-4.20e-2,
7.827100e+0,-4.20e-2,
7.827200e+0,-4.20e-2,
7.827300e+0,-4.40e-2,
7.827400e+0,-4.40e-2,
7.827500e+0,-4.40e-2,
7.827600e+0,-4.40e-2,
7.827700e+0,-4.60e-2,
7.827800e+0,-4.60e-2,
7.827900e+0,-4.20e-2,
7.828000e+0,-4.20e-2,
7.828100e+0,-4.20e-2,
7.828200e+0,-4.20e-2,
7.828300e+0,-4.40e-2,
7.828400e+0,-4.40e-2,
7.828500e+0,-4.40e-2,
7.828600e+0,-4.40e-2,
7.828700e+0,-4.20e-2,
7.828800e+0,-4.20e-2,
7.828900e+0,-4.20e-2,
7.829000e+0,-4.20e-2,
7.829100e+0,-4.40e-2,
7.829200e+0,-4.40e-2,
7.829300e+0,-4.40e-2,
7.829400e+0,-4.40e-2,
7.829500e+0,-4.40e-2,
7.829600e+0,-4.40e-2,
7.829700e+0,-4.60e-2,
7.829800e+0,-4.60e-2,
7.829900e+0,-4.20e-2,
7.830000e+0,-4.20e-2,
7.830100e+0,-4.40e-2,
7.830200e+0,-4.40e-2,
7.830300e+0,-4.60e-2,
7.830400e+0,-4.60e-2,
7.830500e+0,-4.60e-2,
7.830600e+0,-4.60e-2,
7.830700e+0,-4.60e-2,
7.830800e+0,-4.60e-2,
7.830900e+0,-4.40e-2,
7.831000e+0,-4.40e-2,
7.831100e+0,-4.40e-2,
7.831200e+0,-4.40e-2,
7.831300e+0,-4.40e-2,
7.831400e+0,-4.40e-2,
7.831500e+0,-4.40e-2,
7.831600e+0,-4.40e-2,
7.831700e+0,-4.40e-2,
7.831800e+0,-4.40e-2,
7.831900e+0,-4.40e-2,
7.832000e+0,-4.40e-2,
7.832100e+0,-4.40e-2,
7.832200e+0,-4.40e-2,
7.832300e+0,-4.40e-2,
7.832400e+0,-4.40e-2,
7.832500e+0,-4.40e-2,
7.832600e+0,-4.40e-2,
7.832700e+0,-4.20e-2,
7.832800e+0,-4.20e-2,
7.832900e+0,-4.60e-2,
7.833000e+0,-4.60e-2,
7.833100e+0,-4.40e-2,
7.833200e+0,-4.40e-2,
7.833300e+0,-4.40e-2,
7.833400e+0,-4.40e-2,
7.833500e+0,-4.20e-2,
7.833600e+0,-4.20e-2,
7.833700e+0,-4.40e-2,
7.833800e+0,-4.40e-2,
7.833900e+0,-4.60e-2,
7.834000e+0,-4.60e-2,
7.834100e+0,-4.40e-2,
7.834200e+0,-4.40e-2,
7.834300e+0,-4.60e-2,
7.834400e+0,-4.60e-2,
7.834500e+0,-4.40e-2,
7.834600e+0,-4.40e-2,
7.834700e+0,-4.60e-2,
7.834800e+0,-4.60e-2,
7.834900e+0,-4.60e-2,
7.835000e+0,-4.60e-2,
7.835100e+0,-4.60e-2,
7.835200e+0,-4.60e-2,
7.835300e+0,-4.20e-2,
7.835400e+0,-4.20e-2,
7.835500e+0,-4.40e-2,
7.835600e+0,-4.40e-2,
7.835700e+0,-4.60e-2,
7.835800e+0,-4.60e-2,
7.835900e+0,-4.40e-2,
7.836000e+0,-4.40e-2,
7.836100e+0,-4.60e-2,
7.836200e+0,-4.60e-2,
7.836300e+0,-4.20e-2,
7.836400e+0,-4.20e-2,
7.836500e+0,-4.40e-2,
7.836600e+0,-4.40e-2,
7.836700e+0,-4.60e-2,
7.836800e+0,-4.60e-2,
7.836900e+0,-4.40e-2,
7.837000e+0,-4.40e-2,
7.837100e+0,-4.60e-2,
7.837200e+0,-4.60e-2,
7.837300e+0,-4.40e-2,
7.837400e+0,-4.40e-2,
7.837500e+0,-4.60e-2,
7.837600e+0,-4.60e-2,
7.837700e+0,-4.40e-2,
7.837800e+0,-4.40e-2,
7.837900e+0,-4.60e-2,
7.838000e+0,-4.60e-2,
7.838100e+0,-4.60e-2,
7.838200e+0,-4.60e-2,
7.838300e+0,-4.40e-2,
7.838400e+0,-4.40e-2,
7.838500e+0,-4.40e-2,
7.838600e+0,-4.40e-2,
7.838700e+0,-4.40e-2,
7.838800e+0,-4.40e-2,
7.838900e+0,-4.40e-2,
7.839000e+0,-4.40e-2,
7.839100e+0,-4.60e-2,
7.839200e+0,-4.60e-2,
7.839300e+0,-4.40e-2,
7.839400e+0,-4.40e-2,
7.839500e+0,-4.40e-2,
7.839600e+0,-4.40e-2,
7.839700e+0,-4.40e-2,
7.839800e+0,-4.40e-2,
7.839900e+0,-4.40e-2,
7.840000e+0,-4.40e-2,
7.840100e+0,-4.60e-2,
7.840200e+0,-4.60e-2,
7.840300e+0,-4.40e-2,
7.840400e+0,-4.40e-2,
7.840500e+0,-4.40e-2,
7.840600e+0,-4.40e-2,
7.840700e+0,-4.60e-2,
7.840800e+0,-4.60e-2,
7.840900e+0,-4.60e-2,
7.841000e+0,-4.60e-2,
7.841100e+0,-4.60e-2,
7.841200e+0,-4.60e-2,
7.841300e+0,-4.40e-2,
7.841400e+0,-4.40e-2,
7.841500e+0,-4.40e-2,
7.841600e+0,-4.40e-2,
7.841700e+0,-4.60e-2,
7.841800e+0,-4.60e-2,
7.841900e+0,-4.60e-2,
7.842000e+0,-4.60e-2,
7.842100e+0,-4.60e-2,
7.842200e+0,-4.60e-2,
7.842300e+0,-4.40e-2,
7.842400e+0,-4.40e-2,
7.842500e+0,-4.40e-2,
7.842600e+0,-4.40e-2,
7.842700e+0,-4.40e-2,
7.842800e+0,-4.40e-2,
7.842900e+0,-4.60e-2,
7.843000e+0,-4.60e-2,
7.843100e+0,-4.60e-2,
7.843200e+0,-4.60e-2,
7.843300e+0,-4.20e-2,
7.843400e+0,-4.20e-2,
7.843500e+0,-4.60e-2,
7.843600e+0,-4.60e-2,
7.843700e+0,-4.60e-2,
7.843800e+0,-4.60e-2,
7.843900e+0,-4.20e-2,
7.844000e+0,-4.20e-2,
7.844100e+0,-4.40e-2,
7.844200e+0,-4.40e-2,
7.844300e+0,-4.40e-2,
7.844400e+0,-4.40e-2,
7.844500e+0,-4.60e-2,
7.844600e+0,-4.60e-2,
7.844700e+0,-4.60e-2,
7.844800e+0,-4.60e-2,
7.844900e+0,-4.40e-2,
7.845000e+0,-4.40e-2,
7.845100e+0,-4.60e-2,
7.845200e+0,-4.60e-2,
7.845300e+0,-4.60e-2,
7.845400e+0,-4.60e-2,
7.845500e+0,-4.40e-2,
7.845600e+0,-4.40e-2,
7.845700e+0,-4.40e-2,
7.845800e+0,-4.40e-2,
7.845900e+0,-4.60e-2,
7.846000e+0,-4.60e-2,
7.846100e+0,-4.60e-2,
7.846200e+0,-4.60e-2,
7.846300e+0,-4.60e-2,
7.846400e+0,-4.60e-2,
7.846500e+0,-4.40e-2,
7.846600e+0,-4.40e-2,
7.846700e+0,-4.60e-2,
7.846800e+0,-4.60e-2,
7.846900e+0,-4.60e-2,
7.847000e+0,-4.60e-2,
7.847100e+0,-4.60e-2,
7.847200e+0,-4.60e-2,
7.847300e+0,-4.40e-2,
7.847400e+0,-4.40e-2,
7.847500e+0,-4.60e-2,
7.847600e+0,-4.60e-2,
7.847700e+0,-4.60e-2,
7.847800e+0,-4.60e-2,
7.847900e+0,-4.60e-2,
7.848000e+0,-4.60e-2,
7.848100e+0,-4.40e-2,
7.848200e+0,-4.40e-2,
7.848300e+0,-4.60e-2,
7.848400e+0,-4.60e-2,
7.848500e+0,-4.40e-2,
7.848600e+0,-4.40e-2,
7.848700e+0,-4.60e-2,
7.848800e+0,-4.60e-2,
7.848900e+0,-4.40e-2,
7.849000e+0,-4.40e-2,
7.849100e+0,-4.40e-2,
7.849200e+0,-4.40e-2,
7.849300e+0,-4.60e-2,
7.849400e+0,-4.60e-2,
7.849500e+0,-4.40e-2,
7.849600e+0,-4.40e-2,
7.849700e+0,-4.60e-2,
7.849800e+0,-4.60e-2,
7.849900e+0,-4.60e-2,
7.850000e+0,-4.60e-2,
7.850100e+0,-4.60e-2,
7.850200e+0,-4.60e-2,
7.850300e+0,-4.40e-2,
7.850400e+0,-4.40e-2,
7.850500e+0,-4.60e-2,
7.850600e+0,-4.60e-2,
7.850700e+0,-4.60e-2,
7.850800e+0,-4.60e-2,
7.850900e+0,-4.60e-2,
7.851000e+0,-4.60e-2,
7.851100e+0,-4.60e-2,
7.851200e+0,-4.60e-2,
7.851300e+0,-4.60e-2,
7.851400e+0,-4.60e-2,
7.851500e+0,-4.40e-2,
7.851600e+0,-4.40e-2,
7.851700e+0,-4.60e-2,
7.851800e+0,-4.60e-2,
7.851900e+0,-4.40e-2,
7.852000e+0,-4.40e-2,
7.852100e+0,-4.40e-2,
7.852200e+0,-4.40e-2,
7.852300e+0,-4.20e-2,
7.852400e+0,-4.20e-2,
7.852500e+0,-4.60e-2,
7.852600e+0,-4.60e-2,
7.852700e+0,-4.40e-2,
7.852800e+0,-4.40e-2,
7.852900e+0,-4.60e-2,
7.853000e+0,-4.60e-2,
7.853100e+0,-4.40e-2,
7.853200e+0,-4.40e-2,
7.853300e+0,-4.60e-2,
7.853400e+0,-4.60e-2,
7.853500e+0,-4.60e-2,
7.853600e+0,-4.60e-2,
7.853700e+0,-4.60e-2,
7.853800e+0,-4.60e-2,
7.853900e+0,-4.60e-2,
7.854000e+0,-4.60e-2,
7.854100e+0,-4.60e-2,
7.854200e+0,-4.60e-2,
7.854300e+0,-4.60e-2,
7.854400e+0,-4.60e-2,
7.854500e+0,-4.60e-2,
7.854600e+0,-4.60e-2,
7.854700e+0,-4.60e-2,
7.854800e+0,-4.60e-2,
7.854900e+0,-4.60e-2,
7.855000e+0,-4.60e-2,
7.855100e+0,-4.60e-2,
7.855200e+0,-4.60e-2,
7.855300e+0,-4.60e-2,
7.855400e+0,-4.60e-2,
7.855500e+0,-4.40e-2,
7.855600e+0,-4.40e-2,
7.855700e+0,-4.60e-2,
7.855800e+0,-4.60e-2,
7.855900e+0,-4.60e-2,
7.856000e+0,-4.60e-2,
7.856100e+0,-4.60e-2,
7.856200e+0,-4.60e-2,
7.856300e+0,-4.60e-2,
7.856400e+0,-4.60e-2,
7.856500e+0,-4.60e-2,
7.856600e+0,-4.60e-2,
7.856700e+0,-4.60e-2,
7.856800e+0,-4.60e-2,
7.856900e+0,-4.40e-2,
7.857000e+0,-4.40e-2,
7.857100e+0,-4.60e-2,
7.857200e+0,-4.60e-2,
7.857300e+0,-4.60e-2,
7.857400e+0,-4.60e-2,
7.857500e+0,-4.60e-2,
7.857600e+0,-4.60e-2,
7.857700e+0,-4.40e-2,
7.857800e+0,-4.40e-2,
7.857900e+0,-4.60e-2,
7.858000e+0,-4.60e-2,
7.858100e+0,-4.40e-2,
7.858200e+0,-4.40e-2,
7.858300e+0,-4.60e-2,
7.858400e+0,-4.60e-2,
7.858500e+0,-4.60e-2,
7.858600e+0,-4.60e-2,
7.858700e+0,-4.60e-2,
7.858800e+0,-4.60e-2,
7.858900e+0,-4.60e-2,
7.859000e+0,-4.60e-2,
7.859100e+0,-4.40e-2,
7.859200e+0,-4.40e-2,
7.859300e+0,-4.40e-2,
7.859400e+0,-4.40e-2,
7.859500e+0,-4.60e-2,
7.859600e+0,-4.60e-2,
7.859700e+0,-4.60e-2,
7.859800e+0,-4.60e-2,
7.859900e+0,-4.60e-2,
7.860000e+0,-4.60e-2,
7.860100e+0,-4.60e-2,
7.860200e+0,-4.60e-2,
7.860300e+0,-4.60e-2,
7.860400e+0,-4.60e-2,
7.860500e+0,-4.60e-2,
7.860600e+0,-4.60e-2,
7.860700e+0,-4.60e-2,
7.860800e+0,-4.60e-2,
7.860900e+0,-4.60e-2,
7.861000e+0,-4.60e-2,
7.861100e+0,-5.00e-2,
7.861200e+0,-5.00e-2,
7.861300e+0,-4.60e-2,
7.861400e+0,-4.60e-2,
7.861500e+0,-4.60e-2,
7.861600e+0,-4.60e-2,
7.861700e+0,-4.60e-2,
7.861800e+0,-4.60e-2,
7.861900e+0,-4.60e-2,
7.862000e+0,-4.60e-2,
7.862100e+0,-4.80e-2,
7.862200e+0,-4.80e-2,
7.862300e+0,-4.60e-2,
7.862400e+0,-4.60e-2,
7.862500e+0,-4.40e-2,
7.862600e+0,-4.40e-2,
7.862700e+0,-4.60e-2,
7.862800e+0,-4.60e-2,
7.862900e+0,-4.60e-2,
7.863000e+0,-4.60e-2,
7.863100e+0,-4.60e-2,
7.863200e+0,-4.60e-2,
7.863300e+0,-4.60e-2,
7.863400e+0,-4.60e-2,
7.863500e+0,-4.60e-2,
7.863600e+0,-4.60e-2,
7.863700e+0,-4.60e-2,
7.863800e+0,-4.60e-2,
7.863900e+0,-4.60e-2,
7.864000e+0,-4.60e-2,
7.864100e+0,-4.60e-2,
7.864200e+0,-4.60e-2,
7.864300e+0,-4.60e-2,
7.864400e+0,-4.60e-2,
7.864500e+0,-4.60e-2,
7.864600e+0,-4.60e-2,
7.864700e+0,-4.60e-2,
7.864800e+0,-4.60e-2,
7.864900e+0,-4.60e-2,
7.865000e+0,-4.60e-2,
7.865100e+0,-4.60e-2,
7.865200e+0,-4.60e-2,
7.865300e+0,-4.60e-2,
7.865400e+0,-4.60e-2,
7.865500e+0,-4.60e-2,
7.865600e+0,-4.60e-2,
7.865700e+0,-4.60e-2,
7.865800e+0,-4.60e-2,
7.865900e+0,-4.60e-2,
7.866000e+0,-4.60e-2,
7.866100e+0,-4.60e-2,
7.866200e+0,-4.60e-2,
7.866300e+0,-4.60e-2,
7.866400e+0,-4.60e-2,
7.866500e+0,-4.60e-2,
7.866600e+0,-4.60e-2,
7.866700e+0,-4.60e-2,
7.866800e+0,-4.60e-2,
7.866900e+0,-4.60e-2,
7.867000e+0,-4.60e-2,
7.867100e+0,-4.40e-2,
7.867200e+0,-4.40e-2,
7.867300e+0,-4.60e-2,
7.867400e+0,-4.60e-2,
7.867500e+0,-4.60e-2,
7.867600e+0,-4.60e-2,
7.867700e+0,-4.60e-2,
7.867800e+0,-4.60e-2,
7.867900e+0,-4.60e-2,
7.868000e+0,-4.60e-2,
7.868100e+0,-4.60e-2,
7.868200e+0,-4.60e-2,
7.868300e+0,-4.60e-2,
7.868400e+0,-4.60e-2,
7.868500e+0,-4.40e-2,
7.868600e+0,-4.40e-2,
7.868700e+0,-4.60e-2,
7.868800e+0,-4.60e-2,
7.868900e+0,-4.60e-2,
7.869000e+0,-4.60e-2,
7.869100e+0,-4.60e-2,
7.869200e+0,-4.60e-2,
7.869300e+0,-4.60e-2,
7.869400e+0,-4.60e-2,
7.869500e+0,-4.60e-2,
7.869600e+0,-4.60e-2,
7.869700e+0,-4.60e-2,
7.869800e+0,-4.60e-2,
7.869900e+0,-4.60e-2,
7.870000e+0,-4.60e-2,
7.870100e+0,-4.80e-2,
7.870200e+0,-4.80e-2,
7.870300e+0,-4.60e-2,
7.870400e+0,-4.60e-2,
7.870500e+0,-4.80e-2,
7.870600e+0,-4.80e-2,
7.870700e+0,-4.60e-2,
7.870800e+0,-4.60e-2,
7.870900e+0,-4.60e-2,
7.871000e+0,-4.60e-2,
7.871100e+0,-4.60e-2,
7.871200e+0,-4.60e-2,
7.871300e+0,-4.60e-2,
7.871400e+0,-4.60e-2,
7.871500e+0,-4.60e-2,
7.871600e+0,-4.60e-2,
7.871700e+0,-4.80e-2,
7.871800e+0,-4.80e-2,
7.871900e+0,-5.00e-2,
7.872000e+0,-5.00e-2,
7.872100e+0,-4.60e-2,
7.872200e+0,-4.60e-2,
7.872300e+0,-4.60e-2,
7.872400e+0,-4.60e-2,
7.872500e+0,-4.60e-2,
7.872600e+0,-4.60e-2,
7.872700e+0,-4.60e-2,
7.872800e+0,-4.60e-2,
7.872900e+0,-4.60e-2,
7.873000e+0,-4.60e-2,
7.873100e+0,-4.40e-2,
7.873200e+0,-4.40e-2,
7.873300e+0,-4.60e-2,
7.873400e+0,-4.60e-2,
7.873500e+0,-5.00e-2,
7.873600e+0,-5.00e-2,
7.873700e+0,-4.60e-2,
7.873800e+0,-4.60e-2,
7.873900e+0,-4.60e-2,
7.874000e+0,-4.60e-2,
7.874100e+0,-4.60e-2,
7.874200e+0,-4.60e-2,
7.874300e+0,-4.60e-2,
7.874400e+0,-4.60e-2,
7.874500e+0,-4.60e-2,
7.874600e+0,-4.60e-2,
7.874700e+0,-4.60e-2,
7.874800e+0,-4.60e-2,
7.874900e+0,-4.60e-2,
7.875000e+0,-4.60e-2,
7.875100e+0,-4.60e-2,
7.875200e+0,-4.60e-2,
7.875300e+0,-4.60e-2,
7.875400e+0,-4.60e-2,
7.875500e+0,-4.60e-2,
7.875600e+0,-4.60e-2,
7.875700e+0,-4.60e-2,
7.875800e+0,-4.60e-2,
7.875900e+0,-4.60e-2,
7.876000e+0,-4.60e-2,
7.876100e+0,-4.60e-2,
7.876200e+0,-4.60e-2,
7.876300e+0,-4.80e-2,
7.876400e+0,-4.80e-2,
7.876500e+0,-4.60e-2,
7.876600e+0,-4.60e-2,
7.876700e+0,-4.60e-2,
7.876800e+0,-4.60e-2,
7.876900e+0,-4.60e-2,
7.877000e+0,-4.60e-2,
7.877100e+0,-4.60e-2,
7.877200e+0,-4.60e-2,
7.877300e+0,-4.80e-2,
7.877400e+0,-4.80e-2,
7.877500e+0,-4.60e-2,
7.877600e+0,-4.60e-2,
7.877700e+0,-4.80e-2,
7.877800e+0,-4.80e-2,
7.877900e+0,-4.60e-2,
7.878000e+0,-4.60e-2,
7.878100e+0,-4.80e-2,
7.878200e+0,-4.80e-2,
7.878300e+0,-4.60e-2,
7.878400e+0,-4.60e-2,
7.878500e+0,-4.60e-2,
7.878600e+0,-4.60e-2,
7.878700e+0,-4.60e-2,
7.878800e+0,-4.60e-2,
7.878900e+0,-5.00e-2,
7.879000e+0,-5.00e-2,
7.879100e+0,-4.60e-2,
7.879200e+0,-4.60e-2,
7.879300e+0,-4.60e-2,
7.879400e+0,-4.60e-2,
7.879500e+0,-4.60e-2,
7.879600e+0,-4.60e-2,
7.879700e+0,-4.60e-2,
7.879800e+0,-4.60e-2,
7.879900e+0,-4.60e-2,
7.880000e+0,-4.60e-2,
7.880100e+0,-5.00e-2,
7.880200e+0,-5.00e-2,
7.880300e+0,-4.60e-2,
7.880400e+0,-4.60e-2,
7.880500e+0,-4.60e-2,
7.880600e+0,-4.60e-2,
7.880700e+0,-5.00e-2,
7.880800e+0,-5.00e-2,
7.880900e+0,-4.60e-2,
7.881000e+0,-4.60e-2,
7.881100e+0,-4.60e-2,
7.881200e+0,-4.60e-2,
7.881300e+0,-4.80e-2,
7.881400e+0,-4.80e-2,
7.881500e+0,-4.80e-2,
7.881600e+0,-4.80e-2,
7.881700e+0,-4.60e-2,
7.881800e+0,-4.60e-2,
7.881900e+0,-5.00e-2,
7.882000e+0,-5.00e-2,
7.882100e+0,-5.00e-2,
7.882200e+0,-5.00e-2,
7.882300e+0,-4.60e-2,
7.882400e+0,-4.60e-2,
7.882500e+0,-4.60e-2,
7.882600e+0,-4.60e-2,
7.882700e+0,-4.60e-2,
7.882800e+0,-4.60e-2,
7.882900e+0,-4.60e-2,
7.883000e+0,-4.60e-2,
7.883100e+0,-4.60e-2,
7.883200e+0,-4.60e-2,
7.883300e+0,-4.80e-2,
7.883400e+0,-4.80e-2,
7.883500e+0,-4.80e-2,
7.883600e+0,-4.80e-2,
7.883700e+0,-4.60e-2,
7.883800e+0,-4.60e-2,
7.883900e+0,-4.60e-2,
7.884000e+0,-4.60e-2,
7.884100e+0,-4.60e-2,
7.884200e+0,-4.60e-2,
7.884300e+0,-4.60e-2,
7.884400e+0,-4.60e-2,
7.884500e+0,-4.60e-2,
7.884600e+0,-4.60e-2,
7.884700e+0,-5.00e-2,
7.884800e+0,-5.00e-2,
7.884900e+0,-4.60e-2,
7.885000e+0,-4.60e-2,
7.885100e+0,-4.60e-2,
7.885200e+0,-4.60e-2,
7.885300e+0,-4.60e-2,
7.885400e+0,-4.60e-2,
7.885500e+0,-5.00e-2,
7.885600e+0,-5.00e-2,
7.885700e+0,-4.60e-2,
7.885800e+0,-4.60e-2,
7.885900e+0,-4.60e-2,
7.886000e+0,-4.60e-2,
7.886100e+0,-4.60e-2,
7.886200e+0,-4.60e-2,
7.886300e+0,-4.60e-2,
7.886400e+0,-4.60e-2,
7.886500e+0,-4.80e-2,
7.886600e+0,-4.80e-2,
7.886700e+0,-4.60e-2,
7.886800e+0,-4.60e-2,
7.886900e+0,-5.00e-2,
7.887000e+0,-5.00e-2,
7.887100e+0,-4.60e-2,
7.887200e+0,-4.60e-2,
7.887300e+0,-4.60e-2,
7.887400e+0,-4.60e-2,
7.887500e+0,-5.00e-2,
7.887600e+0,-5.00e-2,
7.887700e+0,-4.80e-2,
7.887800e+0,-4.80e-2,
7.887900e+0,-4.60e-2,
7.888000e+0,-4.60e-2,
7.888100e+0,-4.80e-2,
7.888200e+0,-4.80e-2,
7.888300e+0,-4.60e-2,
7.888400e+0,-4.60e-2,
7.888500e+0,-5.00e-2,
7.888600e+0,-5.00e-2,
7.888700e+0,-4.60e-2,
7.888800e+0,-4.60e-2,
7.888900e+0,-4.60e-2,
7.889000e+0,-4.60e-2,
7.889100e+0,-4.60e-2,
7.889200e+0,-4.60e-2,
7.889300e+0,-4.60e-2,
7.889400e+0,-4.60e-2,
7.889500e+0,-5.00e-2,
7.889600e+0,-5.00e-2,
7.889700e+0,-4.60e-2,
7.889800e+0,-4.60e-2,
7.889900e+0,-5.00e-2,
7.890000e+0,-5.00e-2,
7.890100e+0,-4.80e-2,
7.890200e+0,-4.80e-2,
7.890300e+0,-4.80e-2,
7.890400e+0,-4.80e-2,
7.890500e+0,-5.00e-2,
7.890600e+0,-5.00e-2,
7.890700e+0,-5.00e-2,
7.890800e+0,-5.00e-2,
7.890900e+0,-4.80e-2,
7.891000e+0,-4.80e-2,
7.891100e+0,-5.00e-2,
7.891200e+0,-5.00e-2,
7.891300e+0,-5.00e-2,
7.891400e+0,-5.00e-2,
7.891500e+0,-4.60e-2,
7.891600e+0,-4.60e-2,
7.891700e+0,-5.00e-2,
7.891800e+0,-5.00e-2,
7.891900e+0,-5.00e-2,
7.892000e+0,-5.00e-2,
7.892100e+0,-4.60e-2,
7.892200e+0,-4.60e-2,
7.892300e+0,-4.80e-2,
7.892400e+0,-4.80e-2,
7.892500e+0,-4.40e-2,
7.892600e+0,-4.40e-2,
7.892700e+0,-4.80e-2,
7.892800e+0,-4.80e-2,
7.892900e+0,-5.00e-2,
7.893000e+0,-5.00e-2,
7.893100e+0,-5.00e-2,
7.893200e+0,-5.00e-2,
7.893300e+0,-4.80e-2,
7.893400e+0,-4.80e-2,
7.893500e+0,-4.60e-2,
7.893600e+0,-4.60e-2,
7.893700e+0,-4.80e-2,
7.893800e+0,-4.80e-2,
7.893900e+0,-4.60e-2,
7.894000e+0,-4.60e-2,
7.894100e+0,-5.00e-2,
7.894200e+0,-5.00e-2,
7.894300e+0,-4.80e-2,
7.894400e+0,-4.80e-2,
7.894500e+0,-5.00e-2,
7.894600e+0,-5.00e-2,
7.894700e+0,-5.00e-2,
7.894800e+0,-5.00e-2,
7.894900e+0,-4.60e-2,
7.895000e+0,-4.60e-2,
7.895100e+0,-4.60e-2,
7.895200e+0,-4.60e-2,
7.895300e+0,-4.60e-2,
7.895400e+0,-4.60e-2,
7.895500e+0,-4.80e-2,
7.895600e+0,-4.80e-2,
7.895700e+0,-4.60e-2,
7.895800e+0,-4.60e-2,
7.895900e+0,-4.60e-2,
7.896000e+0,-4.60e-2,
7.896100e+0,-4.60e-2,
7.896200e+0,-4.60e-2,
7.896300e+0,-5.00e-2,
7.896400e+0,-5.00e-2,
7.896500e+0,-5.00e-2,
7.896600e+0,-5.00e-2,
7.896700e+0,-5.00e-2,
7.896800e+0,-5.00e-2,
7.896900e+0,-5.00e-2,
7.897000e+0,-5.00e-2,
7.897100e+0,-4.60e-2,
7.897200e+0,-4.60e-2,
7.897300e+0,-4.60e-2,
7.897400e+0,-4.60e-2,
7.897500e+0,-5.00e-2,
7.897600e+0,-5.00e-2,
7.897700e+0,-4.60e-2,
7.897800e+0,-4.60e-2,
7.897900e+0,-5.00e-2,
7.898000e+0,-5.00e-2,
7.898100e+0,-4.60e-2,
7.898200e+0,-4.60e-2,
7.898300e+0,-4.80e-2,
7.898400e+0,-4.80e-2,
7.898500e+0,-4.80e-2,
7.898600e+0,-4.80e-2,
7.898700e+0,-4.60e-2,
7.898800e+0,-4.60e-2,
7.898900e+0,-5.00e-2,
7.899000e+0,-5.00e-2,
7.899100e+0,-4.60e-2,
7.899200e+0,-4.60e-2,
7.899300e+0,-4.80e-2,
7.899400e+0,-4.80e-2,
7.899500e+0,-4.60e-2,
7.899600e+0,-4.60e-2,
7.899700e+0,-4.60e-2,
7.899800e+0,-4.60e-2,
7.899900e+0,-4.60e-2,
7.900000e+0,-4.60e-2,
7.900100e+0,-5.00e-2,
7.900200e+0,-5.00e-2,
7.900300e+0,-5.00e-2,
7.900400e+0,-5.00e-2,
7.900500e+0,-4.80e-2,
7.900600e+0,-4.80e-2,
7.900700e+0,-5.00e-2,
7.900800e+0,-5.00e-2,
7.900900e+0,-5.00e-2,
7.901000e+0,-5.00e-2,
7.901100e+0,-4.80e-2,
7.901200e+0,-4.80e-2,
7.901300e+0,-5.20e-2,
7.901400e+0,-5.20e-2,
7.901500e+0,-5.00e-2,
7.901600e+0,-5.00e-2,
7.901700e+0,-4.80e-2,
7.901800e+0,-4.80e-2,
7.901900e+0,-4.80e-2,
7.902000e+0,-4.80e-2,
7.902100e+0,-4.60e-2,
7.902200e+0,-4.60e-2,
7.902300e+0,-5.00e-2,
7.902400e+0,-5.00e-2,
7.902500e+0,-4.60e-2,
7.902600e+0,-4.60e-2,
7.902700e+0,-5.00e-2,
7.902800e+0,-5.00e-2,
7.902900e+0,-5.00e-2,
7.903000e+0,-5.00e-2,
7.903100e+0,-5.00e-2,
7.903200e+0,-5.00e-2,
7.903300e+0,-5.00e-2,
7.903400e+0,-5.00e-2,
7.903500e+0,-5.00e-2,
7.903600e+0,-5.00e-2,
7.903700e+0,-5.00e-2,
7.903800e+0,-5.00e-2,
7.903900e+0,-5.00e-2,
7.904000e+0,-5.00e-2,
7.904100e+0,-5.00e-2,
7.904200e+0,-5.00e-2,
7.904300e+0,-4.60e-2,
7.904400e+0,-4.60e-2,
7.904500e+0,-5.20e-2,
7.904600e+0,-5.20e-2,
7.904700e+0,-4.80e-2,
7.904800e+0,-4.80e-2,
7.904900e+0,-4.80e-2,
7.905000e+0,-4.80e-2,
7.905100e+0,-5.00e-2,
7.905200e+0,-5.00e-2,
7.905300e+0,-4.60e-2,
7.905400e+0,-4.60e-2,
7.905500e+0,-4.60e-2,
7.905600e+0,-4.60e-2,
7.905700e+0,-5.00e-2,
7.905800e+0,-5.00e-2,
7.905900e+0,-5.00e-2,
7.906000e+0,-5.00e-2,
7.906100e+0,-5.00e-2,
7.906200e+0,-5.00e-2,
7.906300e+0,-4.80e-2,
7.906400e+0,-4.80e-2,
7.906500e+0,-5.00e-2,
7.906600e+0,-5.00e-2,
7.906700e+0,-5.00e-2,
7.906800e+0,-5.00e-2,
7.906900e+0,-4.60e-2,
7.907000e+0,-4.60e-2,
7.907100e+0,-5.00e-2,
7.907200e+0,-5.00e-2,
7.907300e+0,-5.20e-2,
7.907400e+0,-5.20e-2,
7.907500e+0,-4.60e-2,
7.907600e+0,-4.60e-2,
7.907700e+0,-4.80e-2,
7.907800e+0,-4.80e-2,
7.907900e+0,-5.00e-2,
7.908000e+0,-5.00e-2,
7.908100e+0,-5.00e-2,
7.908200e+0,-5.00e-2,
7.908300e+0,-4.60e-2,
7.908400e+0,-4.60e-2,
7.908500e+0,-5.00e-2,
7.908600e+0,-5.00e-2,
7.908700e+0,-4.80e-2,
7.908800e+0,-4.80e-2,
7.908900e+0,-4.80e-2,
7.909000e+0,-4.80e-2,
7.909100e+0,-5.00e-2,
7.909200e+0,-5.00e-2,
7.909300e+0,-5.20e-2,
7.909400e+0,-5.20e-2,
7.909500e+0,-4.60e-2,
7.909600e+0,-4.60e-2,
7.909700e+0,-4.80e-2,
7.909800e+0,-4.80e-2,
7.909900e+0,-5.20e-2,
7.910000e+0,-5.20e-2,
7.910100e+0,-5.20e-2,
7.910200e+0,-5.20e-2,
7.910300e+0,-4.60e-2,
7.910400e+0,-4.60e-2,
7.910500e+0,-4.80e-2,
7.910600e+0,-4.80e-2,
7.910700e+0,-5.00e-2,
7.910800e+0,-5.00e-2,
7.910900e+0,-5.20e-2,
7.911000e+0,-5.20e-2,
7.911100e+0,-5.00e-2,
7.911200e+0,-5.00e-2,
7.911300e+0,-5.00e-2,
7.911400e+0,-5.00e-2,
7.911500e+0,-4.80e-2,
7.911600e+0,-4.80e-2,
7.911700e+0,-4.80e-2,
7.911800e+0,-4.80e-2,
7.911900e+0,-5.00e-2,
7.912000e+0,-5.00e-2,
7.912100e+0,-4.80e-2,
7.912200e+0,-4.80e-2,
7.912300e+0,-5.00e-2,
7.912400e+0,-5.00e-2,
7.912500e+0,-5.00e-2,
7.912600e+0,-5.00e-2,
7.912700e+0,-5.00e-2,
7.912800e+0,-5.00e-2,
7.912900e+0,-5.00e-2,
7.913000e+0,-5.00e-2,
7.913100e+0,-5.00e-2,
7.913200e+0,-5.00e-2,
7.913300e+0,-5.00e-2,
7.913400e+0,-5.00e-2,
7.913500e+0,-5.00e-2,
7.913600e+0,-5.00e-2,
7.913700e+0,-5.00e-2,
7.913800e+0,-5.00e-2,
7.913900e+0,-5.00e-2,
7.914000e+0,-5.00e-2,
7.914100e+0,-5.00e-2,
7.914200e+0,-5.00e-2,
7.914300e+0,-5.00e-2,
7.914400e+0,-5.00e-2,
7.914500e+0,-5.00e-2,
7.914600e+0,-5.00e-2,
7.914700e+0,-5.00e-2,
7.914800e+0,-5.00e-2,
7.914900e+0,-4.60e-2,
7.915000e+0,-4.60e-2,
7.915100e+0,-5.00e-2,
7.915200e+0,-5.00e-2,
7.915300e+0,-5.00e-2,
7.915400e+0,-5.00e-2,
7.915500e+0,-5.00e-2,
7.915600e+0,-5.00e-2,
7.915700e+0,-5.00e-2,
7.915800e+0,-5.00e-2,
7.915900e+0,-5.00e-2,
7.916000e+0,-5.00e-2,
7.916100e+0,-5.20e-2,
7.916200e+0,-5.20e-2,
7.916300e+0,-5.00e-2,
7.916400e+0,-5.00e-2,
7.916500e+0,-5.00e-2,
7.916600e+0,-5.00e-2,
7.916700e+0,-5.00e-2,
7.916800e+0,-5.00e-2,
7.916900e+0,-4.80e-2,
7.917000e+0,-4.80e-2,
7.917100e+0,-5.00e-2,
7.917200e+0,-5.00e-2,
7.917300e+0,-5.00e-2,
7.917400e+0,-5.00e-2,
7.917500e+0,-5.20e-2,
7.917600e+0,-5.20e-2,
7.917700e+0,-5.00e-2,
7.917800e+0,-5.00e-2,
7.917900e+0,-4.80e-2,
7.918000e+0,-4.80e-2,
7.918100e+0,-5.20e-2,
7.918200e+0,-5.20e-2,
7.918300e+0,-4.60e-2,
7.918400e+0,-4.60e-2,
7.918500e+0,-5.00e-2,
7.918600e+0,-5.00e-2,
7.918700e+0,-5.00e-2,
7.918800e+0,-5.00e-2,
7.918900e+0,-4.80e-2,
7.919000e+0,-4.80e-2,
7.919100e+0,-5.20e-2,
7.919200e+0,-5.20e-2,
7.919300e+0,-5.20e-2,
7.919400e+0,-5.20e-2,
7.919500e+0,-5.00e-2,
7.919600e+0,-5.00e-2,
7.919700e+0,-5.20e-2,
7.919800e+0,-5.20e-2,
7.919900e+0,-5.20e-2,
7.920000e+0,-5.20e-2,
7.920100e+0,-5.00e-2,
7.920200e+0,-5.00e-2,
7.920300e+0,-5.20e-2,
7.920400e+0,-5.20e-2,
7.920500e+0,-4.80e-2,
7.920600e+0,-4.80e-2,
7.920700e+0,-5.00e-2,
7.920800e+0,-5.00e-2,
7.920900e+0,-5.20e-2,
7.921000e+0,-5.20e-2,
7.921100e+0,-5.00e-2,
7.921200e+0,-5.00e-2,
7.921300e+0,-4.80e-2,
7.921400e+0,-4.80e-2,
7.921500e+0,-5.00e-2,
7.921600e+0,-5.00e-2,
7.921700e+0,-4.80e-2,
7.921800e+0,-4.80e-2,
7.921900e+0,-5.00e-2,
7.922000e+0,-5.00e-2,
7.922100e+0,-5.20e-2,
7.922200e+0,-5.20e-2,
7.922300e+0,-5.00e-2,
7.922400e+0,-5.00e-2,
7.922500e+0,-5.00e-2,
7.922600e+0,-5.00e-2,
7.922700e+0,-5.00e-2,
7.922800e+0,-5.00e-2,
7.922900e+0,-5.00e-2,
7.923000e+0,-5.00e-2,
7.923100e+0,-5.00e-2,
7.923200e+0,-5.00e-2,
7.923300e+0,-5.00e-2,
7.923400e+0,-5.00e-2,
7.923500e+0,-5.00e-2,
7.923600e+0,-5.00e-2,
7.923700e+0,-5.20e-2,
7.923800e+0,-5.20e-2,
7.923900e+0,-5.00e-2,
7.924000e+0,-5.00e-2,
7.924100e+0,-5.00e-2,
7.924200e+0,-5.00e-2,
7.924300e+0,-5.20e-2,
7.924400e+0,-5.20e-2,
7.924500e+0,-5.00e-2,
7.924600e+0,-5.00e-2,
7.924700e+0,-5.00e-2,
7.924800e+0,-5.00e-2,
7.924900e+0,-5.00e-2,
7.925000e+0,-5.00e-2,
7.925100e+0,-5.00e-2,
7.925200e+0,-5.00e-2,
7.925300e+0,-5.20e-2,
7.925400e+0,-5.20e-2,
7.925500e+0,-5.20e-2,
7.925600e+0,-5.20e-2,
7.925700e+0,-4.80e-2,
7.925800e+0,-4.80e-2,
7.925900e+0,-5.20e-2,
7.926000e+0,-5.20e-2,
7.926100e+0,-5.00e-2,
7.926200e+0,-5.00e-2,
7.926300e+0,-5.20e-2,
7.926400e+0,-5.20e-2,
7.926500e+0,-5.00e-2,
7.926600e+0,-5.00e-2,
7.926700e+0,-5.20e-2,
7.926800e+0,-5.20e-2,
7.926900e+0,-5.00e-2,
7.927000e+0,-5.00e-2,
7.927100e+0,-5.00e-2,
7.927200e+0,-5.00e-2,
7.927300e+0,-5.20e-2,
7.927400e+0,-5.20e-2,
7.927500e+0,-5.00e-2,
7.927600e+0,-5.00e-2,
7.927700e+0,-5.20e-2,
7.927800e+0,-5.20e-2,
7.927900e+0,-5.00e-2,
7.928000e+0,-5.00e-2,
7.928100e+0,-5.00e-2,
7.928200e+0,-5.00e-2,
7.928300e+0,-5.00e-2,
7.928400e+0,-5.00e-2,
7.928500e+0,-5.00e-2,
7.928600e+0,-5.00e-2,
7.928700e+0,-5.00e-2,
7.928800e+0,-5.00e-2,
7.928900e+0,-4.80e-2,
7.929000e+0,-4.80e-2,
7.929100e+0,-5.20e-2,
7.929200e+0,-5.20e-2,
7.929300e+0,-5.00e-2,
7.929400e+0,-5.00e-2,
7.929500e+0,-5.20e-2,
7.929600e+0,-5.20e-2,
7.929700e+0,-5.00e-2,
7.929800e+0,-5.00e-2,
7.929900e+0,-4.80e-2,
7.930000e+0,-4.80e-2,
7.930100e+0,-5.00e-2,
7.930200e+0,-5.00e-2,
7.930300e+0,-5.20e-2,
7.930400e+0,-5.20e-2,
7.930500e+0,-5.00e-2,
7.930600e+0,-5.00e-2,
7.930700e+0,-5.00e-2,
7.930800e+0,-5.00e-2,
7.930900e+0,-5.00e-2,
7.931000e+0,-5.00e-2,
7.931100e+0,-5.00e-2,
7.931200e+0,-5.00e-2,
7.931300e+0,-5.20e-2,
7.931400e+0,-5.20e-2,
7.931500e+0,-5.00e-2,
7.931600e+0,-5.00e-2,
7.931700e+0,-5.20e-2,
7.931800e+0,-5.20e-2,
7.931900e+0,-5.00e-2,
7.932000e+0,-5.00e-2,
7.932100e+0,-5.00e-2,
7.932200e+0,-5.00e-2,
7.932300e+0,-5.20e-2,
7.932400e+0,-5.20e-2,
7.932500e+0,-5.00e-2,
7.932600e+0,-5.00e-2,
7.932700e+0,-5.20e-2,
7.932800e+0,-5.20e-2,
7.932900e+0,-5.40e-2,
7.933000e+0,-5.40e-2,
7.933100e+0,-5.00e-2,
7.933200e+0,-5.00e-2,
7.933300e+0,-5.20e-2,
7.933400e+0,-5.20e-2,
7.933500e+0,-5.00e-2,
7.933600e+0,-5.00e-2,
7.933700e+0,-5.20e-2,
7.933800e+0,-5.20e-2,
7.933900e+0,-5.20e-2,
7.934000e+0,-5.20e-2,
7.934100e+0,-5.00e-2,
7.934200e+0,-5.00e-2,
7.934300e+0,-5.40e-2,
7.934400e+0,-5.40e-2,
7.934500e+0,-5.20e-2,
7.934600e+0,-5.20e-2,
7.934700e+0,-5.20e-2,
7.934800e+0,-5.20e-2,
7.934900e+0,-5.20e-2,
7.935000e+0,-5.20e-2,
7.935100e+0,-5.00e-2,
7.935200e+0,-5.00e-2,
7.935300e+0,-5.20e-2,
7.935400e+0,-5.20e-2,
7.935500e+0,-5.20e-2,
7.935600e+0,-5.20e-2,
7.935700e+0,-5.20e-2,
7.935800e+0,-5.20e-2,
7.935900e+0,-5.40e-2,
7.936000e+0,-5.40e-2,
7.936100e+0,-5.20e-2,
7.936200e+0,-5.20e-2,
7.936300e+0,-5.20e-2,
7.936400e+0,-5.20e-2,
7.936500e+0,-5.20e-2,
7.936600e+0,-5.20e-2,
7.936700e+0,-5.00e-2,
7.936800e+0,-5.00e-2,
7.936900e+0,-5.00e-2,
7.937000e+0,-5.00e-2,
7.937100e+0,-5.00e-2,
7.937200e+0,-5.00e-2,
7.937300e+0,-5.00e-2,
7.937400e+0,-5.00e-2,
7.937500e+0,-5.20e-2,
7.937600e+0,-5.20e-2,
7.937700e+0,-5.00e-2,
7.937800e+0,-5.00e-2,
7.937900e+0,-5.20e-2,
7.938000e+0,-5.20e-2,
7.938100e+0,-5.20e-2,
7.938200e+0,-5.20e-2,
7.938300e+0,-5.20e-2,
7.938400e+0,-5.20e-2,
7.938500e+0,-5.20e-2,
7.938600e+0,-5.20e-2,
7.938700e+0,-5.20e-2,
7.938800e+0,-5.20e-2,
7.938900e+0,-5.20e-2,
7.939000e+0,-5.20e-2,
7.939100e+0,-5.40e-2,
7.939200e+0,-5.40e-2,
7.939300e+0,-5.40e-2,
7.939400e+0,-5.40e-2,
7.939500e+0,-5.20e-2,
7.939600e+0,-5.20e-2,
7.939700e+0,-5.00e-2,
7.939800e+0,-5.00e-2,
7.939900e+0,-5.20e-2,
7.940000e+0,-5.20e-2,
7.940100e+0,-5.40e-2,
7.940200e+0,-5.40e-2,
7.940300e+0,-5.20e-2,
7.940400e+0,-5.20e-2,
7.940500e+0,-5.20e-2,
7.940600e+0,-5.20e-2,
7.940700e+0,-5.20e-2,
7.940800e+0,-5.20e-2,
7.940900e+0,-5.20e-2,
7.941000e+0,-5.20e-2,
7.941100e+0,-5.20e-2,
7.941200e+0,-5.20e-2,
7.941300e+0,-5.20e-2,
7.941400e+0,-5.20e-2,
7.941500e+0,-5.20e-2,
7.941600e+0,-5.20e-2,
7.941700e+0,-5.20e-2,
7.941800e+0,-5.20e-2,
7.941900e+0,-5.20e-2,
7.942000e+0,-5.20e-2,
7.942100e+0,-5.20e-2,
7.942200e+0,-5.20e-2,
7.942300e+0,-5.20e-2,
7.942400e+0,-5.20e-2,
7.942500e+0,-5.00e-2,
7.942600e+0,-5.00e-2,
7.942700e+0,-5.20e-2,
7.942800e+0,-5.20e-2,
7.942900e+0,-5.20e-2,
7.943000e+0,-5.20e-2,
7.943100e+0,-5.20e-2,
7.943200e+0,-5.20e-2,
7.943300e+0,-5.20e-2,
7.943400e+0,-5.20e-2,
7.943500e+0,-5.20e-2,
7.943600e+0,-5.20e-2,
7.943700e+0,-5.20e-2,
7.943800e+0,-5.20e-2,
7.943900e+0,-5.20e-2,
7.944000e+0,-5.20e-2,
7.944100e+0,-5.20e-2,
7.944200e+0,-5.20e-2,
7.944300e+0,-5.20e-2,
7.944400e+0,-5.20e-2,
7.944500e+0,-5.20e-2,
7.944600e+0,-5.20e-2,
7.944700e+0,-5.20e-2,
7.944800e+0,-5.20e-2,
7.944900e+0,-5.00e-2,
7.945000e+0,-5.00e-2,
7.945100e+0,-5.00e-2,
7.945200e+0,-5.00e-2,
7.945300e+0,-5.20e-2,
7.945400e+0,-5.20e-2,
7.945500e+0,-5.40e-2,
7.945600e+0,-5.40e-2,
7.945700e+0,-5.20e-2,
7.945800e+0,-5.20e-2,
7.945900e+0,-5.20e-2,
7.946000e+0,-5.20e-2,
7.946100e+0,-5.20e-2,
7.946200e+0,-5.20e-2,
7.946300e+0,-5.20e-2,
7.946400e+0,-5.20e-2,
7.946500e+0,-5.20e-2,
7.946600e+0,-5.20e-2,
7.946700e+0,-5.20e-2,
7.946800e+0,-5.20e-2,
7.946900e+0,-5.20e-2,
7.947000e+0,-5.20e-2,
7.947100e+0,-5.40e-2,
7.947200e+0,-5.40e-2,
7.947300e+0,-5.20e-2,
7.947400e+0,-5.20e-2,
7.947500e+0,-5.20e-2,
7.947600e+0,-5.20e-2,
7.947700e+0,-5.20e-2,
7.947800e+0,-5.20e-2,
7.947900e+0,-5.00e-2,
7.948000e+0,-5.00e-2,
7.948100e+0,-5.20e-2,
7.948200e+0,-5.20e-2,
7.948300e+0,-5.40e-2,
7.948400e+0,-5.40e-2,
7.948500e+0,-5.20e-2,
7.948600e+0,-5.20e-2,
7.948700e+0,-4.80e-2,
7.948800e+0,-4.80e-2,
7.948900e+0,-5.20e-2,
7.949000e+0,-5.20e-2,
7.949100e+0,-5.20e-2,
7.949200e+0,-5.20e-2,
7.949300e+0,-5.20e-2,
7.949400e+0,-5.20e-2,
7.949500e+0,-5.20e-2,
7.949600e+0,-5.20e-2,
7.949700e+0,-5.00e-2,
7.949800e+0,-5.00e-2,
7.949900e+0,-5.40e-2,
7.950000e+0,-5.40e-2,
7.950100e+0,-5.40e-2,
7.950200e+0,-5.40e-2,
7.950300e+0,-5.20e-2,
7.950400e+0,-5.20e-2,
7.950500e+0,-5.20e-2,
7.950600e+0,-5.20e-2,
7.950700e+0,-5.20e-2,
7.950800e+0,-5.20e-2,
7.950900e+0,-5.20e-2,
7.951000e+0,-5.20e-2,
7.951100e+0,-5.20e-2,
7.951200e+0,-5.20e-2,
7.951300e+0,-5.20e-2,
7.951400e+0,-5.20e-2,
7.951500e+0,-5.20e-2,
7.951600e+0,-5.20e-2,
7.951700e+0,-5.20e-2,
7.951800e+0,-5.20e-2,
7.951900e+0,-5.20e-2,
7.952000e+0,-5.20e-2,
7.952100e+0,-5.20e-2,
7.952200e+0,-5.20e-2,
7.952300e+0,-5.40e-2,
7.952400e+0,-5.40e-2,
7.952500e+0,-5.20e-2,
7.952600e+0,-5.20e-2,
7.952700e+0,-5.20e-2,
7.952800e+0,-5.20e-2,
7.952900e+0,-5.20e-2,
7.953000e+0,-5.20e-2,
7.953100e+0,-5.40e-2,
7.953200e+0,-5.40e-2,
7.953300e+0,-5.40e-2,
7.953400e+0,-5.40e-2,
7.953500e+0,-5.20e-2,
7.953600e+0,-5.20e-2,
7.953700e+0,-5.20e-2,
7.953800e+0,-5.20e-2,
7.953900e+0,-5.40e-2,
7.954000e+0,-5.40e-2,
7.954100e+0,-5.20e-2,
7.954200e+0,-5.20e-2,
7.954300e+0,-5.40e-2,
7.954400e+0,-5.40e-2,
7.954500e+0,-5.20e-2,
7.954600e+0,-5.20e-2,
7.954700e+0,-5.40e-2,
7.954800e+0,-5.40e-2,
7.954900e+0,-5.40e-2,
7.955000e+0,-5.40e-2,
7.955100e+0,-5.40e-2,
7.955200e+0,-5.40e-2,
7.955300e+0,-5.40e-2,
7.955400e+0,-5.40e-2,
7.955500e+0,-5.40e-2,
7.955600e+0,-5.40e-2,
7.955700e+0,-5.00e-2,
7.955800e+0,-5.00e-2,
7.955900e+0,-5.40e-2,
7.956000e+0,-5.40e-2,
7.956100e+0,-5.20e-2,
7.956200e+0,-5.20e-2,
7.956300e+0,-5.40e-2,
7.956400e+0,-5.40e-2,
7.956500e+0,-5.20e-2,
7.956600e+0,-5.20e-2,
7.956700e+0,-5.20e-2,
7.956800e+0,-5.20e-2,
7.956900e+0,-5.20e-2,
7.957000e+0,-5.20e-2,
7.957100e+0,-5.20e-2,
7.957200e+0,-5.20e-2,
7.957300e+0,-5.20e-2,
7.957400e+0,-5.20e-2,
7.957500e+0,-5.40e-2,
7.957600e+0,-5.40e-2,
7.957700e+0,-5.20e-2,
7.957800e+0,-5.20e-2,
7.957900e+0,-5.40e-2,
7.958000e+0,-5.40e-2,
7.958100e+0,-5.40e-2,
7.958200e+0,-5.40e-2,
7.958300e+0,-5.40e-2,
7.958400e+0,-5.40e-2,
7.958500e+0,-5.20e-2,
7.958600e+0,-5.20e-2,
7.958700e+0,-5.40e-2,
7.958800e+0,-5.40e-2,
7.958900e+0,-5.20e-2,
7.959000e+0,-5.20e-2,
7.959100e+0,-5.40e-2,
7.959200e+0,-5.40e-2,
7.959300e+0,-5.20e-2,
7.959400e+0,-5.20e-2,
7.959500e+0,-5.40e-2,
7.959600e+0,-5.40e-2,
7.959700e+0,-5.20e-2,
7.959800e+0,-5.20e-2,
7.959900e+0,-5.00e-2,
7.960000e+0,-5.00e-2,
7.960100e+0,-5.20e-2,
7.960200e+0,-5.20e-2,
7.960300e+0,-5.20e-2,
7.960400e+0,-5.20e-2,
7.960500e+0,-5.40e-2,
7.960600e+0,-5.40e-2,
7.960700e+0,-5.20e-2,
7.960800e+0,-5.20e-2,
7.960900e+0,-5.40e-2,
7.961000e+0,-5.40e-2,
7.961100e+0,-5.40e-2,
7.961200e+0,-5.40e-2,
7.961300e+0,-5.40e-2,
7.961400e+0,-5.40e-2,
7.961500e+0,-5.40e-2,
7.961600e+0,-5.40e-2,
7.961700e+0,-5.20e-2,
7.961800e+0,-5.20e-2,
7.961900e+0,-5.40e-2,
7.962000e+0,-5.40e-2,
7.962100e+0,-5.40e-2,
7.962200e+0,-5.40e-2,
7.962300e+0,-5.40e-2,
7.962400e+0,-5.40e-2,
7.962500e+0,-5.40e-2,
7.962600e+0,-5.40e-2,
7.962700e+0,-5.40e-2,
7.962800e+0,-5.40e-2,
7.962900e+0,-5.40e-2,
7.963000e+0,-5.40e-2,
7.963100e+0,-5.20e-2,
7.963200e+0,-5.20e-2,
7.963300e+0,-5.40e-2,
7.963400e+0,-5.40e-2,
7.963500e+0,-5.20e-2,
7.963600e+0,-5.20e-2,
7.963700e+0,-5.40e-2,
7.963800e+0,-5.40e-2,
7.963900e+0,-5.00e-2,
7.964000e+0,-5.00e-2,
7.964100e+0,-5.20e-2,
7.964200e+0,-5.20e-2,
7.964300e+0,-5.20e-2,
7.964400e+0,-5.20e-2,
7.964500e+0,-5.40e-2,
7.964600e+0,-5.40e-2,
7.964700e+0,-5.20e-2,
7.964800e+0,-5.20e-2,
7.964900e+0,-5.40e-2,
7.965000e+0,-5.40e-2,
7.965100e+0,-5.20e-2,
7.965200e+0,-5.20e-2,
7.965300e+0,-5.20e-2,
7.965400e+0,-5.20e-2,
7.965500e+0,-5.20e-2,
7.965600e+0,-5.20e-2,
7.965700e+0,-5.40e-2,
7.965800e+0,-5.40e-2,
7.965900e+0,-5.20e-2,
7.966000e+0,-5.20e-2,
7.966100e+0,-5.20e-2,
7.966200e+0,-5.20e-2,
7.966300e+0,-5.20e-2,
7.966400e+0,-5.20e-2,
7.966500e+0,-5.20e-2,
7.966600e+0,-5.20e-2,
7.966700e+0,-5.40e-2,
7.966800e+0,-5.40e-2,
7.966900e+0,-5.20e-2,
7.967000e+0,-5.20e-2,
7.967100e+0,-5.60e-2,
7.967200e+0,-5.60e-2,
7.967300e+0,-5.40e-2,
7.967400e+0,-5.40e-2,
7.967500e+0,-5.40e-2,
7.967600e+0,-5.40e-2,
7.967700e+0,-5.20e-2,
7.967800e+0,-5.20e-2,
7.967900e+0,-5.40e-2,
7.968000e+0,-5.40e-2,
7.968100e+0,-5.40e-2,
7.968200e+0,-5.40e-2,
7.968300e+0,-5.40e-2,
7.968400e+0,-5.40e-2,
7.968500e+0,-5.40e-2,
7.968600e+0,-5.40e-2,
7.968700e+0,-5.20e-2,
7.968800e+0,-5.20e-2,
7.968900e+0,-5.60e-2,
7.969000e+0,-5.60e-2,
7.969100e+0,-5.40e-2,
7.969200e+0,-5.40e-2,
7.969300e+0,-5.20e-2,
7.969400e+0,-5.20e-2,
7.969500e+0,-5.40e-2,
7.969600e+0,-5.40e-2,
7.969700e+0,-5.40e-2,
7.969800e+0,-5.40e-2,
7.969900e+0,-5.20e-2,
7.970000e+0,-5.20e-2,
7.970100e+0,-5.20e-2,
7.970200e+0,-5.20e-2,
7.970300e+0,-5.40e-2,
7.970400e+0,-5.40e-2,
7.970500e+0,-5.40e-2,
7.970600e+0,-5.40e-2,
7.970700e+0,-5.20e-2,
7.970800e+0,-5.20e-2,
7.970900e+0,-5.40e-2,
7.971000e+0,-5.40e-2,
7.971100e+0,-5.40e-2,
7.971200e+0,-5.40e-2,
7.971300e+0,-5.40e-2,
7.971400e+0,-5.40e-2,
7.971500e+0,-5.20e-2,
7.971600e+0,-5.20e-2,
7.971700e+0,-5.40e-2,
7.971800e+0,-5.40e-2,
7.971900e+0,-5.40e-2,
7.972000e+0,-5.40e-2,
7.972100e+0,-5.20e-2,
7.972200e+0,-5.20e-2,
7.972300e+0,-5.20e-2,
7.972400e+0,-5.20e-2,
7.972500e+0,-5.40e-2,
7.972600e+0,-5.40e-2,
7.972700e+0,-5.20e-2,
7.972800e+0,-5.20e-2,
7.972900e+0,-5.20e-2,
7.973000e+0,-5.20e-2,
7.973100e+0,-5.20e-2,
7.973200e+0,-5.20e-2,
7.973300e+0,-5.40e-2,
7.973400e+0,-5.40e-2,
7.973500e+0,-5.40e-2,
7.973600e+0,-5.40e-2,
7.973700e+0,-5.20e-2,
7.973800e+0,-5.20e-2,
7.973900e+0,-5.40e-2,
7.974000e+0,-5.40e-2,
7.974100e+0,-5.40e-2,
7.974200e+0,-5.40e-2,
7.974300e+0,-5.40e-2,
7.974400e+0,-5.40e-2,
7.974500e+0,-5.40e-2,
7.974600e+0,-5.40e-2,
7.974700e+0,-5.20e-2,
7.974800e+0,-5.20e-2,
7.974900e+0,-5.40e-2,
7.975000e+0,-5.40e-2,
7.975100e+0,-5.40e-2,
7.975200e+0,-5.40e-2,
7.975300e+0,-5.60e-2,
7.975400e+0,-5.60e-2,
7.975500e+0,-5.40e-2,
7.975600e+0,-5.40e-2,
7.975700e+0,-5.20e-2,
7.975800e+0,-5.20e-2,
7.975900e+0,-5.40e-2,
7.976000e+0,-5.40e-2,
7.976100e+0,-5.20e-2,
7.976200e+0,-5.20e-2,
7.976300e+0,-5.40e-2,
7.976400e+0,-5.40e-2,
7.976500e+0,-5.40e-2,
7.976600e+0,-5.40e-2,
7.976700e+0,-5.60e-2,
7.976800e+0,-5.60e-2,
7.976900e+0,-5.40e-2,
7.977000e+0,-5.40e-2,
7.977100e+0,-5.40e-2,
7.977200e+0,-5.40e-2,
7.977300e+0,-5.40e-2,
7.977400e+0,-5.40e-2,
7.977500e+0,-5.60e-2,
7.977600e+0,-5.60e-2,
7.977700e+0,-5.40e-2,
7.977800e+0,-5.40e-2,
7.977900e+0,-5.40e-2,
7.978000e+0,-5.40e-2,
7.978100e+0,-5.20e-2,
7.978200e+0,-5.20e-2,
7.978300e+0,-5.40e-2,
7.978400e+0,-5.40e-2,
7.978500e+0,-5.40e-2,
7.978600e+0,-5.40e-2,
7.978700e+0,-5.40e-2,
7.978800e+0,-5.40e-2,
7.978900e+0,-5.40e-2,
7.979000e+0,-5.40e-2,
7.979100e+0,-5.40e-2,
7.979200e+0,-5.40e-2,
7.979300e+0,-5.20e-2,
7.979400e+0,-5.20e-2,
7.979500e+0,-5.60e-2,
7.979600e+0,-5.60e-2,
7.979700e+0,-5.40e-2,
7.979800e+0,-5.40e-2,
7.979900e+0,-5.20e-2,
7.980000e+0,-5.20e-2,
7.980100e+0,-5.40e-2,
7.980200e+0,-5.40e-2,
7.980300e+0,-5.40e-2,
7.980400e+0,-5.40e-2,
7.980500e+0,-5.40e-2,
7.980600e+0,-5.40e-2,
7.980700e+0,-5.40e-2,
7.980800e+0,-5.40e-2,
7.980900e+0,-5.40e-2,
7.981000e+0,-5.40e-2,
7.981100e+0,-5.40e-2,
7.981200e+0,-5.40e-2,
7.981300e+0,-5.40e-2,
7.981400e+0,-5.40e-2,
7.981500e+0,-5.40e-2,
7.981600e+0,-5.40e-2,
7.981700e+0,-5.40e-2,
7.981800e+0,-5.40e-2,
7.981900e+0,-5.40e-2,
7.982000e+0,-5.40e-2,
7.982100e+0,-5.40e-2,
7.982200e+0,-5.40e-2,
7.982300e+0,-5.40e-2,
7.982400e+0,-5.40e-2,
7.982500e+0,-5.40e-2,
7.982600e+0,-5.40e-2,
7.982700e+0,-5.40e-2,
7.982800e+0,-5.40e-2,
7.982900e+0,-5.40e-2,
7.983000e+0,-5.40e-2,
7.983100e+0,-5.40e-2,
7.983200e+0,-5.40e-2,
7.983300e+0,-5.40e-2,
7.983400e+0,-5.40e-2,
7.983500e+0,-5.40e-2,
7.983600e+0,-5.40e-2,
7.983700e+0,-5.40e-2,
7.983800e+0,-5.40e-2,
7.983900e+0,-5.40e-2,
7.984000e+0,-5.40e-2,
7.984100e+0,-5.20e-2,
7.984200e+0,-5.20e-2,
7.984300e+0,-5.40e-2,
7.984400e+0,-5.40e-2,
7.984500e+0,-5.40e-2,
7.984600e+0,-5.40e-2,
7.984700e+0,-5.40e-2,
7.984800e+0,-5.40e-2,
7.984900e+0,-5.40e-2,
7.985000e+0,-5.40e-2,
7.985100e+0,-5.40e-2,
7.985200e+0,-5.40e-2,
7.985300e+0,-5.20e-2,
7.985400e+0,-5.20e-2,
7.985500e+0,-5.40e-2,
7.985600e+0,-5.40e-2,
7.985700e+0,-5.40e-2,
7.985800e+0,-5.40e-2,
7.985900e+0,-5.40e-2,
7.986000e+0,-5.40e-2,
7.986100e+0,-5.40e-2,
7.986200e+0,-5.40e-2,
7.986300e+0,-5.40e-2,
7.986400e+0,-5.40e-2,
7.986500e+0,-5.40e-2,
7.986600e+0,-5.40e-2,
7.986700e+0,-5.60e-2,
7.986800e+0,-5.60e-2,
7.986900e+0,-5.40e-2,
7.987000e+0,-5.40e-2,
7.987100e+0,-5.40e-2,
7.987200e+0,-5.40e-2,
7.987300e+0,-5.40e-2,
7.987400e+0,-5.40e-2,
7.987500e+0,-5.40e-2,
7.987600e+0,-5.40e-2,
7.987700e+0,-5.40e-2,
7.987800e+0,-5.40e-2,
7.987900e+0,-5.20e-2,
7.988000e+0,-5.20e-2,
7.988100e+0,-5.40e-2,
7.988200e+0,-5.40e-2,
7.988300e+0,-5.80e-2,
7.988400e+0,-5.80e-2,
7.988500e+0,-5.40e-2,
7.988600e+0,-5.40e-2,
7.988700e+0,-5.80e-2,
7.988800e+0,-5.80e-2,
7.988900e+0,-5.40e-2,
7.989000e+0,-5.40e-2,
7.989100e+0,-5.40e-2,
7.989200e+0,-5.40e-2,
7.989300e+0,-5.20e-2,
7.989400e+0,-5.20e-2,
7.989500e+0,-5.20e-2,
7.989600e+0,-5.20e-2,
7.989700e+0,-5.40e-2,
7.989800e+0,-5.40e-2,
7.989900e+0,-5.40e-2,
7.990000e+0,-5.40e-2,
7.990100e+0,-5.60e-2,
7.990200e+0,-5.60e-2,
7.990300e+0,-5.40e-2,
7.990400e+0,-5.40e-2,
7.990500e+0,-5.40e-2,
7.990600e+0,-5.40e-2,
7.990700e+0,-5.40e-2,
7.990800e+0,-5.40e-2,
7.990900e+0,-5.40e-2,
7.991000e+0,-5.40e-2,
7.991100e+0,-5.40e-2,
7.991200e+0,-5.40e-2,
7.991300e+0,-5.40e-2,
7.991400e+0,-5.40e-2,
7.991500e+0,-5.40e-2,
7.991600e+0,-5.40e-2,
7.991700e+0,-5.40e-2,
7.991800e+0,-5.40e-2,
7.991900e+0,-5.40e-2,
7.992000e+0,-5.40e-2,
7.992100e+0,-5.40e-2,
7.992200e+0,-5.40e-2,
7.992300e+0,-5.40e-2,
7.992400e+0,-5.40e-2,
7.992500e+0,-5.40e-2,
7.992600e+0,-5.40e-2,
7.992700e+0,-5.40e-2,
7.992800e+0,-5.40e-2,
7.992900e+0,-5.40e-2,
7.993000e+0,-5.40e-2,
7.993100e+0,-5.40e-2,
7.993200e+0,-5.40e-2,
7.993300e+0,-5.20e-2,
7.993400e+0,-5.20e-2,
7.993500e+0,-5.60e-2,
7.993600e+0,-5.60e-2,
7.993700e+0,-5.40e-2,
7.993800e+0,-5.40e-2,
7.993900e+0,-5.40e-2,
7.994000e+0,-5.40e-2,
7.994100e+0,-5.40e-2,
7.994200e+0,-5.40e-2,
7.994300e+0,-5.40e-2,
7.994400e+0,-5.40e-2,
7.994500e+0,-5.60e-2,
7.994600e+0,-5.60e-2,
7.994700e+0,-5.40e-2,
7.994800e+0,-5.40e-2,
7.994900e+0,-5.40e-2,
7.995000e+0,-5.40e-2,
7.995100e+0,-5.40e-2,
7.995200e+0,-5.40e-2,
7.995300e+0,-5.40e-2,
7.995400e+0,-5.40e-2,
7.995500e+0,-5.40e-2,
7.995600e+0,-5.40e-2,
7.995700e+0,-5.40e-2,
7.995800e+0,-5.40e-2,
7.995900e+0,-5.40e-2,
7.996000e+0,-5.40e-2,
7.996100e+0,-5.60e-2,
7.996200e+0,-5.60e-2,
7.996300e+0,-5.40e-2,
7.996400e+0,-5.40e-2,
7.996500e+0,-5.60e-2,
7.996600e+0,-5.60e-2,
7.996700e+0,-5.40e-2,
7.996800e+0,-5.40e-2,
7.996900e+0,-5.40e-2,
7.997000e+0,-5.40e-2,
7.997100e+0,-5.40e-2,
7.997200e+0,-5.40e-2,
7.997300e+0,-5.40e-2,
7.997400e+0,-5.40e-2,
7.997500e+0,-5.40e-2,
7.997600e+0,-5.40e-2,
7.997700e+0,-5.40e-2,
7.997800e+0,-5.40e-2,
7.997900e+0,-5.40e-2,
7.998000e+0,-5.40e-2,
7.998100e+0,-5.80e-2,
7.998200e+0,-5.80e-2,
7.998300e+0,-5.40e-2,
7.998400e+0,-5.40e-2,
7.998500e+0,-5.40e-2,
7.998600e+0,-5.40e-2,
7.998700e+0,-5.60e-2,
7.998800e+0,-5.60e-2,
7.998900e+0,-5.40e-2,
7.999000e+0,-5.40e-2,
7.999100e+0,-5.60e-2,
7.999200e+0,-5.60e-2,
7.999300e+0,-5.60e-2,
7.999400e+0,-5.60e-2,
7.999500e+0,-5.40e-2,
7.999600e+0,-5.40e-2,
7.999700e+0,-5.20e-2,
7.999800e+0,-5.20e-2,
7.999900e+0,-5.40e-2,
8.000000e+0,-5.40e-2,
8.000100e+0,-5.60e-2,
8.000200e+0,-5.60e-2,
8.000300e+0,-5.60e-2,
8.000400e+0,-5.60e-2,
8.000500e+0,-5.40e-2,
8.000600e+0,-5.40e-2,
8.000700e+0,-5.40e-2,
8.000800e+0,-5.40e-2,
8.000900e+0,-5.40e-2,
8.001000e+0,-5.40e-2,
8.001100e+0,-5.40e-2,
8.001200e+0,-5.40e-2,
8.001300e+0,-5.40e-2,
8.001400e+0,-5.40e-2,
8.001500e+0,-5.60e-2,
8.001600e+0,-5.60e-2,
8.001700e+0,-5.40e-2,
8.001800e+0,-5.40e-2,
8.001900e+0,-5.40e-2,
8.002000e+0,-5.40e-2,
8.002100e+0,-5.60e-2,
8.002200e+0,-5.60e-2,
8.002300e+0,-5.40e-2,
8.002400e+0,-5.40e-2,
8.002500e+0,-5.40e-2,
8.002600e+0,-5.40e-2,
8.002700e+0,-5.60e-2,
8.002800e+0,-5.60e-2,
8.002900e+0,-5.40e-2,
8.003000e+0,-5.40e-2,
8.003100e+0,-5.60e-2,
8.003200e+0,-5.60e-2,
8.003300e+0,-5.60e-2,
8.003400e+0,-5.60e-2,
8.003500e+0,-5.40e-2,
8.003600e+0,-5.40e-2,
8.003700e+0,-5.80e-2,
8.003800e+0,-5.80e-2,
8.003900e+0,-5.80e-2,
8.004000e+0,-5.80e-2,
8.004100e+0,-5.40e-2,
8.004200e+0,-5.40e-2,
8.004300e+0,-5.40e-2,
8.004400e+0,-5.40e-2,
8.004500e+0,-5.40e-2,
8.004600e+0,-5.40e-2,
8.004700e+0,-5.40e-2,
8.004800e+0,-5.40e-2,
8.004900e+0,-5.60e-2,
8.005000e+0,-5.60e-2,
8.005100e+0,-5.80e-2,
8.005200e+0,-5.80e-2,
8.005300e+0,-5.40e-2,
8.005400e+0,-5.40e-2,
8.005500e+0,-5.40e-2,
8.005600e+0,-5.40e-2,
8.005700e+0,-5.40e-2,
8.005800e+0,-5.40e-2,
8.005900e+0,-5.40e-2,
8.006000e+0,-5.40e-2,
8.006100e+0,-5.40e-2,
8.006200e+0,-5.40e-2,
8.006300e+0,-5.40e-2,
8.006400e+0,-5.40e-2,
8.006500e+0,-5.80e-2,
8.006600e+0,-5.80e-2,
8.006700e+0,-5.40e-2,
8.006800e+0,-5.40e-2,
8.006900e+0,-5.40e-2,
8.007000e+0,-5.40e-2,
8.007100e+0,-5.40e-2,
8.007200e+0,-5.40e-2,
8.007300e+0,-5.40e-2,
8.007400e+0,-5.40e-2,
8.007500e+0,-5.40e-2,
8.007600e+0,-5.40e-2,
8.007700e+0,-5.80e-2,
8.007800e+0,-5.80e-2,
8.007900e+0,-5.40e-2,
8.008000e+0,-5.40e-2,
8.008100e+0,-5.40e-2,
8.008200e+0,-5.40e-2,
8.008300e+0,-5.40e-2,
8.008400e+0,-5.40e-2,
8.008500e+0,-5.40e-2,
8.008600e+0,-5.40e-2,
8.008700e+0,-5.40e-2,
8.008800e+0,-5.40e-2,
8.008900e+0,-5.40e-2,
8.009000e+0,-5.40e-2,
8.009100e+0,-5.60e-2,
8.009200e+0,-5.60e-2,
8.009300e+0,-5.40e-2,
8.009400e+0,-5.40e-2,
8.009500e+0,-5.60e-2,
8.009600e+0,-5.60e-2,
8.009700e+0,-5.40e-2,
8.009800e+0,-5.40e-2,
8.009900e+0,-5.80e-2,
8.010000e+0,-5.80e-2,
8.010100e+0,-5.60e-2,
8.010200e+0,-5.60e-2,
8.010300e+0,-5.60e-2,
8.010400e+0,-5.60e-2,
8.010500e+0,-5.60e-2,
8.010600e+0,-5.60e-2,
8.010700e+0,-5.60e-2,
8.010800e+0,-5.60e-2,
8.010900e+0,-5.40e-2,
8.011000e+0,-5.40e-2,
8.011100e+0,-5.40e-2,
8.011200e+0,-5.40e-2,
8.011300e+0,-5.80e-2,
8.011400e+0,-5.80e-2,
8.011500e+0,-5.80e-2,
8.011600e+0,-5.80e-2,
8.011700e+0,-5.60e-2,
8.011800e+0,-5.60e-2,
8.011900e+0,-5.80e-2,
8.012000e+0,-5.80e-2,
8.012100e+0,-5.80e-2,
8.012200e+0,-5.80e-2,
8.012300e+0,-5.80e-2,
8.012400e+0,-5.80e-2,
8.012500e+0,-6.00e-2,
8.012600e+0,-6.00e-2,
8.012700e+0,-5.80e-2,
8.012800e+0,-5.80e-2,
8.012900e+0,-5.40e-2,
8.013000e+0,-5.40e-2,
8.013100e+0,-5.40e-2,
8.013200e+0,-5.40e-2,
8.013300e+0,-5.80e-2,
8.013400e+0,-5.80e-2,
8.013500e+0,-5.60e-2,
8.013600e+0,-5.60e-2,
8.013700e+0,-5.60e-2,
8.013800e+0,-5.60e-2,
8.013900e+0,-5.80e-2,
8.014000e+0,-5.80e-2,
8.014100e+0,-5.60e-2,
8.014200e+0,-5.60e-2,
8.014300e+0,-5.80e-2,
8.014400e+0,-5.80e-2,
8.014500e+0,-5.80e-2,
8.014600e+0,-5.80e-2,
8.014700e+0,-5.60e-2,
8.014800e+0,-5.60e-2,
8.014900e+0,-5.80e-2,
8.015000e+0,-5.80e-2,
8.015100e+0,-5.60e-2,
8.015200e+0,-5.60e-2,
8.015300e+0,-5.80e-2,
8.015400e+0,-5.80e-2,
8.015500e+0,-5.60e-2,
8.015600e+0,-5.60e-2,
8.015700e+0,-5.80e-2,
8.015800e+0,-5.80e-2,
8.015900e+0,-5.80e-2,
8.016000e+0,-5.80e-2,
8.016100e+0,-5.40e-2,
8.016200e+0,-5.40e-2,
8.016300e+0,-5.40e-2,
8.016400e+0,-5.40e-2,
8.016500e+0,-5.60e-2,
8.016600e+0,-5.60e-2,
8.016700e+0,-5.80e-2,
8.016800e+0,-5.80e-2,
8.016900e+0,-5.60e-2,
8.017000e+0,-5.60e-2,
8.017100e+0,-5.60e-2,
8.017200e+0,-5.60e-2,
8.017300e+0,-5.80e-2,
8.017400e+0,-5.80e-2,
8.017500e+0,-5.80e-2,
8.017600e+0,-5.80e-2,
8.017700e+0,-5.80e-2,
8.017800e+0,-5.80e-2,
8.017900e+0,-5.80e-2,
8.018000e+0,-5.80e-2,
8.018100e+0,-5.60e-2,
8.018200e+0,-5.60e-2,
8.018300e+0,-5.60e-2,
8.018400e+0,-5.60e-2,
8.018500e+0,-5.60e-2,
8.018600e+0,-5.60e-2,
8.018700e+0,-5.80e-2,
8.018800e+0,-5.80e-2,
8.018900e+0,-5.40e-2,
8.019000e+0,-5.40e-2,
8.019100e+0,-5.80e-2,
8.019200e+0,-5.80e-2,
8.019300e+0,-5.40e-2,
8.019400e+0,-5.40e-2,
8.019500e+0,-5.40e-2,
8.019600e+0,-5.40e-2,
8.019700e+0,-5.40e-2,
8.019800e+0,-5.40e-2,
8.019900e+0,-5.80e-2,
8.020000e+0,-5.80e-2,
8.020100e+0,-5.80e-2,
8.020200e+0,-5.80e-2,
8.020300e+0,-5.60e-2,
8.020400e+0,-5.60e-2,
8.020500e+0,-5.40e-2,
8.020600e+0,-5.40e-2,
8.020700e+0,-5.80e-2,
8.020800e+0,-5.80e-2,
8.020900e+0,-5.80e-2,
8.021000e+0,-5.80e-2,
8.021100e+0,-5.40e-2,
8.021200e+0,-5.40e-2,
8.021300e+0,-5.60e-2,
8.021400e+0,-5.60e-2,
8.021500e+0,-5.40e-2,
8.021600e+0,-5.40e-2,
8.021700e+0,-5.60e-2,
8.021800e+0,-5.60e-2,
8.021900e+0,-5.80e-2,
8.022000e+0,-5.80e-2,
8.022100e+0,-5.40e-2,
8.022200e+0,-5.40e-2,
8.022300e+0,-5.40e-2,
8.022400e+0,-5.40e-2,
8.022500e+0,-5.80e-2,
8.022600e+0,-5.80e-2,
8.022700e+0,-5.80e-2,
8.022800e+0,-5.80e-2,
8.022900e+0,-5.40e-2,
8.023000e+0,-5.40e-2,
8.023100e+0,-5.40e-2,
8.023200e+0,-5.40e-2,
8.023300e+0,-5.60e-2,
8.023400e+0,-5.60e-2,
8.023500e+0,-5.60e-2,
8.023600e+0,-5.60e-2,
8.023700e+0,-5.80e-2,
8.023800e+0,-5.80e-2,
8.023900e+0,-5.40e-2,
8.024000e+0,-5.40e-2,
8.024100e+0,-5.80e-2,
8.024200e+0,-5.80e-2,
8.024300e+0,-5.80e-2,
8.024400e+0,-5.80e-2,
8.024500e+0,-5.80e-2,
8.024600e+0,-5.80e-2,
8.024700e+0,-5.60e-2,
8.024800e+0,-5.60e-2,
8.024900e+0,-5.80e-2,
8.025000e+0,-5.80e-2,
8.025100e+0,-5.80e-2,
8.025200e+0,-5.80e-2,
8.025300e+0,-5.80e-2,
8.025400e+0,-5.80e-2,
8.025500e+0,-5.80e-2,
8.025600e+0,-5.80e-2,
8.025700e+0,-5.80e-2,
8.025800e+0,-5.80e-2,
8.025900e+0,-5.80e-2,
8.026000e+0,-5.80e-2,
8.026100e+0,-5.80e-2,
8.026200e+0,-5.80e-2,
8.026300e+0,-5.80e-2,
8.026400e+0,-5.80e-2,
8.026500e+0,-5.80e-2,
8.026600e+0,-5.80e-2,
8.026700e+0,-5.60e-2,
8.026800e+0,-5.60e-2,
8.026900e+0,-5.80e-2,
8.027000e+0,-5.80e-2,
8.027100e+0,-5.40e-2,
8.027200e+0,-5.40e-2,
8.027300e+0,-5.60e-2,
8.027400e+0,-5.60e-2,
8.027500e+0,-5.80e-2,
8.027600e+0,-5.80e-2,
8.027700e+0,-5.80e-2,
8.027800e+0,-5.80e-2,
8.027900e+0,-5.80e-2,
8.028000e+0,-5.80e-2,
8.028100e+0,-5.60e-2,
8.028200e+0,-5.60e-2,
8.028300e+0,-5.80e-2,
8.028400e+0,-5.80e-2,
8.028500e+0,-5.80e-2,
8.028600e+0,-5.80e-2,
8.028700e+0,-5.80e-2,
8.028800e+0,-5.80e-2,
8.028900e+0,-5.80e-2,
8.029000e+0,-5.80e-2,
8.029100e+0,-5.80e-2,
8.029200e+0,-5.80e-2,
8.029300e+0,-5.80e-2,
8.029400e+0,-5.80e-2,
8.029500e+0,-5.60e-2,
8.029600e+0,-5.60e-2,
8.029700e+0,-5.60e-2,
8.029800e+0,-5.60e-2,
8.029900e+0,-5.80e-2,
8.030000e+0,-5.80e-2,
8.030100e+0,-5.80e-2,
8.030200e+0,-5.80e-2,
8.030300e+0,-5.60e-2,
8.030400e+0,-5.60e-2,
8.030500e+0,-5.80e-2,
8.030600e+0,-5.80e-2,
8.030700e+0,-5.80e-2,
8.030800e+0,-5.80e-2,
8.030900e+0,-5.80e-2,
8.031000e+0,-5.80e-2,
8.031100e+0,-5.80e-2,
8.031200e+0,-5.80e-2,
8.031300e+0,-5.60e-2,
8.031400e+0,-5.60e-2,
8.031500e+0,-5.60e-2,
8.031600e+0,-5.60e-2,
8.031700e+0,-5.80e-2,
8.031800e+0,-5.80e-2,
8.031900e+0,-5.40e-2,
8.032000e+0,-5.40e-2,
8.032100e+0,-5.60e-2,
8.032200e+0,-5.60e-2,
8.032300e+0,-6.00e-2,
8.032400e+0,-6.00e-2,
8.032500e+0,-5.60e-2,
8.032600e+0,-5.60e-2,
8.032700e+0,-5.80e-2,
8.032800e+0,-5.80e-2,
8.032900e+0,-5.80e-2,
8.033000e+0,-5.80e-2,
8.033100e+0,-5.80e-2,
8.033200e+0,-5.80e-2,
8.033300e+0,-5.80e-2,
8.033400e+0,-5.80e-2,
8.033500e+0,-5.60e-2,
8.033600e+0,-5.60e-2,
8.033700e+0,-5.80e-2,
8.033800e+0,-5.80e-2,
8.033900e+0,-5.80e-2,
8.034000e+0,-5.80e-2,
8.034100e+0,-5.80e-2,
8.034200e+0,-5.80e-2,
8.034300e+0,-5.80e-2,
8.034400e+0,-5.80e-2,
8.034500e+0,-5.80e-2,
8.034600e+0,-5.80e-2,
8.034700e+0,-5.40e-2,
8.034800e+0,-5.40e-2,
8.034900e+0,-5.80e-2,
8.035000e+0,-5.80e-2,
8.035100e+0,-5.80e-2,
8.035200e+0,-5.80e-2,
8.035300e+0,-5.80e-2,
8.035400e+0,-5.80e-2,
8.035500e+0,-5.40e-2,
8.035600e+0,-5.40e-2,
8.035700e+0,-5.80e-2,
8.035800e+0,-5.80e-2,
8.035900e+0,-5.80e-2,
8.036000e+0,-5.80e-2,
8.036100e+0,-5.80e-2,
8.036200e+0,-5.80e-2,
8.036300e+0,-5.60e-2,
8.036400e+0,-5.60e-2,
8.036500e+0,-5.80e-2,
8.036600e+0,-5.80e-2,
8.036700e+0,-5.60e-2,
8.036800e+0,-5.60e-2,
8.036900e+0,-6.00e-2,
8.037000e+0,-6.00e-2,
8.037100e+0,-5.80e-2,
8.037200e+0,-5.80e-2,
8.037300e+0,-5.80e-2,
8.037400e+0,-5.80e-2,
8.037500e+0,-5.80e-2,
8.037600e+0,-5.80e-2,
8.037700e+0,-5.80e-2,
8.037800e+0,-5.80e-2,
8.037900e+0,-5.80e-2,
8.038000e+0,-5.80e-2,
8.038100e+0,-6.00e-2,
8.038200e+0,-6.00e-2,
8.038300e+0,-5.80e-2,
8.038400e+0,-5.80e-2,
8.038500e+0,-5.40e-2,
8.038600e+0,-5.40e-2,
8.038700e+0,-5.80e-2,
8.038800e+0,-5.80e-2,
8.038900e+0,-5.80e-2,
8.039000e+0,-5.80e-2,
8.039100e+0,-5.80e-2,
8.039200e+0,-5.80e-2,
8.039300e+0,-5.40e-2,
8.039400e+0,-5.40e-2,
8.039500e+0,-5.80e-2,
8.039600e+0,-5.80e-2,
8.039700e+0,-5.80e-2,
8.039800e+0,-5.80e-2,
8.039900e+0,-5.40e-2,
8.040000e+0,-5.40e-2,
8.040100e+0,-5.80e-2,
8.040200e+0,-5.80e-2,
8.040300e+0,-6.00e-2,
8.040400e+0,-6.00e-2,
8.040500e+0,-5.80e-2,
8.040600e+0,-5.80e-2,
8.040700e+0,-5.80e-2,
8.040800e+0,-5.80e-2,
8.040900e+0,-5.80e-2,
8.041000e+0,-5.80e-2,
8.041100e+0,-5.80e-2,
8.041200e+0,-5.80e-2,
8.041300e+0,-5.80e-2,
8.041400e+0,-5.80e-2,
8.041500e+0,-5.80e-2,
8.041600e+0,-5.80e-2,
8.041700e+0,-5.80e-2,
8.041800e+0,-5.80e-2,
8.041900e+0,-5.80e-2,
8.042000e+0,-5.80e-2,
8.042100e+0,-5.80e-2,
8.042200e+0,-5.80e-2,
8.042300e+0,-6.00e-2,
8.042400e+0,-6.00e-2,
8.042500e+0,-5.80e-2,
8.042600e+0,-5.80e-2,
8.042700e+0,-6.00e-2,
8.042800e+0,-6.00e-2,
8.042900e+0,-6.00e-2,
8.043000e+0,-6.00e-2,
8.043100e+0,-5.80e-2,
8.043200e+0,-5.80e-2,
8.043300e+0,-5.80e-2,
8.043400e+0,-5.80e-2,
8.043500e+0,-5.80e-2,
8.043600e+0,-5.80e-2,
8.043700e+0,-5.60e-2,
8.043800e+0,-5.60e-2,
8.043900e+0,-6.00e-2,
8.044000e+0,-6.00e-2,
8.044100e+0,-5.80e-2,
8.044200e+0,-5.80e-2,
8.044300e+0,-5.80e-2,
8.044400e+0,-5.80e-2,
8.044500e+0,-5.80e-2,
8.044600e+0,-5.80e-2,
8.044700e+0,-6.00e-2,
8.044800e+0,-6.00e-2,
8.044900e+0,-5.80e-2,
8.045000e+0,-5.80e-2,
8.045100e+0,-5.80e-2,
8.045200e+0,-5.80e-2,
8.045300e+0,-5.80e-2,
8.045400e+0,-5.80e-2,
8.045500e+0,-5.80e-2,
8.045600e+0,-5.80e-2,
8.045700e+0,-5.80e-2,
8.045800e+0,-5.80e-2,
8.045900e+0,-6.00e-2,
8.046000e+0,-6.00e-2,
8.046100e+0,-5.80e-2,
8.046200e+0,-5.80e-2,
8.046300e+0,-5.80e-2,
8.046400e+0,-5.80e-2,
8.046500e+0,-5.80e-2,
8.046600e+0,-5.80e-2,
8.046700e+0,-5.80e-2,
8.046800e+0,-5.80e-2,
8.046900e+0,-5.80e-2,
8.047000e+0,-5.80e-2,
8.047100e+0,-5.80e-2,
8.047200e+0,-5.80e-2,
8.047300e+0,-5.80e-2,
8.047400e+0,-5.80e-2,
8.047500e+0,-5.80e-2,
8.047600e+0,-5.80e-2,
8.047700e+0,-5.80e-2,
8.047800e+0,-5.80e-2,
8.047900e+0,-5.80e-2,
8.048000e+0,-5.80e-2,
8.048100e+0,-5.80e-2,
8.048200e+0,-5.80e-2,
8.048300e+0,-5.60e-2,
8.048400e+0,-5.60e-2,
8.048500e+0,-6.00e-2,
8.048600e+0,-6.00e-2,
8.048700e+0,-5.40e-2,
8.048800e+0,-5.40e-2,
8.048900e+0,-5.60e-2,
8.049000e+0,-5.60e-2,
8.049100e+0,-5.80e-2,
8.049200e+0,-5.80e-2,
8.049300e+0,-6.00e-2,
8.049400e+0,-6.00e-2,
8.049500e+0,-5.80e-2,
8.049600e+0,-5.80e-2,
8.049700e+0,-5.80e-2,
8.049800e+0,-5.80e-2,
8.049900e+0,-5.80e-2,
8.050000e+0,-5.80e-2,
8.050100e+0,-5.80e-2,
8.050200e+0,-5.80e-2,
8.050300e+0,-5.80e-2,
8.050400e+0,-5.80e-2,
8.050500e+0,-5.60e-2,
8.050600e+0,-5.60e-2,
8.050700e+0,-6.00e-2,
8.050800e+0,-6.00e-2,
8.050900e+0,-5.80e-2,
8.051000e+0,-5.80e-2,
8.051100e+0,-6.00e-2,
8.051200e+0,-6.00e-2,
8.051300e+0,-5.80e-2,
8.051400e+0,-5.80e-2,
8.051500e+0,-5.80e-2,
8.051600e+0,-5.80e-2,
8.051700e+0,-5.60e-2,
8.051800e+0,-5.60e-2,
8.051900e+0,-5.80e-2,
8.052000e+0,-5.80e-2,
8.052100e+0,-5.80e-2,
8.052200e+0,-5.80e-2,
8.052300e+0,-5.60e-2,
8.052400e+0,-5.60e-2,
8.052500e+0,-6.00e-2,
8.052600e+0,-6.00e-2,
8.052700e+0,-5.80e-2,
8.052800e+0,-5.80e-2,
8.052900e+0,-6.00e-2,
8.053000e+0,-6.00e-2,
8.053100e+0,-6.00e-2,
8.053200e+0,-6.00e-2,
8.053300e+0,-6.00e-2,
8.053400e+0,-6.00e-2,
8.053500e+0,-5.80e-2,
8.053600e+0,-5.80e-2,
8.053700e+0,-5.80e-2,
8.053800e+0,-5.80e-2,
8.053900e+0,-5.80e-2,
8.054000e+0,-5.80e-2,
8.054100e+0,-6.00e-2,
8.054200e+0,-6.00e-2,
8.054300e+0,-5.80e-2,
8.054400e+0,-5.80e-2,
8.054500e+0,-5.80e-2,
8.054600e+0,-5.80e-2,
8.054700e+0,-5.80e-2,
8.054800e+0,-5.80e-2,
8.054900e+0,-6.00e-2,
8.055000e+0,-6.00e-2,
8.055100e+0,-6.00e-2,
8.055200e+0,-6.00e-2,
8.055300e+0,-6.00e-2,
8.055400e+0,-6.00e-2,
8.055500e+0,-5.80e-2,
8.055600e+0,-5.80e-2,
8.055700e+0,-6.00e-2,
8.055800e+0,-6.00e-2,
8.055900e+0,-6.00e-2,
8.056000e+0,-6.00e-2,
8.056100e+0,-6.00e-2,
8.056200e+0,-6.00e-2,
8.056300e+0,-5.80e-2,
8.056400e+0,-5.80e-2,
8.056500e+0,-5.80e-2,
8.056600e+0,-5.80e-2,
8.056700e+0,-5.80e-2,
8.056800e+0,-5.80e-2,
8.056900e+0,-5.80e-2,
8.057000e+0,-5.80e-2,
8.057100e+0,-5.80e-2,
8.057200e+0,-5.80e-2,
8.057300e+0,-6.00e-2,
8.057400e+0,-6.00e-2,
8.057500e+0,-6.20e-2,
8.057600e+0,-6.20e-2,
8.057700e+0,-6.00e-2,
8.057800e+0,-6.00e-2,
8.057900e+0,-6.00e-2,
8.058000e+0,-6.00e-2,
8.058100e+0,-5.80e-2,
8.058200e+0,-5.80e-2,
8.058300e+0,-5.80e-2,
8.058400e+0,-5.80e-2,
8.058500e+0,-5.80e-2,
8.058600e+0,-5.80e-2,
8.058700e+0,-6.00e-2,
8.058800e+0,-6.00e-2,
8.058900e+0,-6.00e-2,
8.059000e+0,-6.00e-2,
8.059100e+0,-6.20e-2,
8.059200e+0,-6.20e-2,
8.059300e+0,-6.00e-2,
8.059400e+0,-6.00e-2,
8.059500e+0,-5.80e-2,
8.059600e+0,-5.80e-2,
8.059700e+0,-6.00e-2,
8.059800e+0,-6.00e-2,
8.059900e+0,-5.80e-2,
8.060000e+0,-5.80e-2,
8.060100e+0,-6.00e-2,
8.060200e+0,-6.00e-2,
8.060300e+0,-6.00e-2,
8.060400e+0,-6.00e-2,
8.060500e+0,-6.00e-2,
8.060600e+0,-6.00e-2,
8.060700e+0,-6.00e-2,
8.060800e+0,-6.00e-2,
8.060900e+0,-6.00e-2,
8.061000e+0,-6.00e-2,
8.061100e+0,-6.00e-2,
8.061200e+0,-6.00e-2,
8.061300e+0,-6.00e-2,
8.061400e+0,-6.00e-2,
8.061500e+0,-5.80e-2,
8.061600e+0,-5.80e-2,
8.061700e+0,-6.00e-2,
8.061800e+0,-6.00e-2,
8.061900e+0,-5.80e-2,
8.062000e+0,-5.80e-2,
8.062100e+0,-6.00e-2,
8.062200e+0,-6.00e-2,
8.062300e+0,-5.80e-2,
8.062400e+0,-5.80e-2,
8.062500e+0,-6.00e-2,
8.062600e+0,-6.00e-2,
8.062700e+0,-6.00e-2,
8.062800e+0,-6.00e-2,
8.062900e+0,-6.00e-2,
8.063000e+0,-6.00e-2,
8.063100e+0,-5.80e-2,
8.063200e+0,-5.80e-2,
8.063300e+0,-5.60e-2,
8.063400e+0,-5.60e-2,
8.063500e+0,-6.00e-2,
8.063600e+0,-6.00e-2,
8.063700e+0,-6.00e-2,
8.063800e+0,-6.00e-2,
8.063900e+0,-5.80e-2,
8.064000e+0,-5.80e-2,
8.064100e+0,-6.00e-2,
8.064200e+0,-6.00e-2,
8.064300e+0,-5.80e-2,
8.064400e+0,-5.80e-2,
8.064500e+0,-6.00e-2,
8.064600e+0,-6.00e-2,
8.064700e+0,-6.00e-2,
8.064800e+0,-6.00e-2,
8.064900e+0,-6.00e-2,
8.065000e+0,-6.00e-2,
8.065100e+0,-6.00e-2,
8.065200e+0,-6.00e-2,
8.065300e+0,-6.00e-2,
8.065400e+0,-6.00e-2,
8.065500e+0,-6.00e-2,
8.065600e+0,-6.00e-2,
8.065700e+0,-6.00e-2,
8.065800e+0,-6.00e-2,
8.065900e+0,-6.00e-2,
8.066000e+0,-6.00e-2,
8.066100e+0,-6.00e-2,
8.066200e+0,-6.00e-2,
8.066300e+0,-6.00e-2,
8.066400e+0,-6.00e-2,
8.066500e+0,-6.00e-2,
8.066600e+0,-6.00e-2,
8.066700e+0,-6.00e-2,
8.066800e+0,-6.00e-2,
8.066900e+0,-6.00e-2,
8.067000e+0,-6.00e-2,
8.067100e+0,-6.00e-2,
8.067200e+0,-6.00e-2,
8.067300e+0,-5.80e-2,
8.067400e+0,-5.80e-2,
8.067500e+0,-6.20e-2,
8.067600e+0,-6.20e-2,
8.067700e+0,-6.00e-2,
8.067800e+0,-6.00e-2,
8.067900e+0,-6.20e-2,
8.068000e+0,-6.20e-2,
8.068100e+0,-6.00e-2,
8.068200e+0,-6.00e-2,
8.068300e+0,-6.00e-2,
8.068400e+0,-6.00e-2,
8.068500e+0,-6.00e-2,
8.068600e+0,-6.00e-2,
8.068700e+0,-5.80e-2,
8.068800e+0,-5.80e-2,
8.068900e+0,-6.20e-2,
8.069000e+0,-6.20e-2,
8.069100e+0,-6.00e-2,
8.069200e+0,-6.00e-2,
8.069300e+0,-6.20e-2,
8.069400e+0,-6.20e-2,
8.069500e+0,-6.20e-2,
8.069600e+0,-6.20e-2,
8.069700e+0,-6.00e-2,
8.069800e+0,-6.00e-2,
8.069900e+0,-6.20e-2,
8.070000e+0,-6.20e-2,
8.070100e+0,-6.00e-2,
8.070200e+0,-6.00e-2,
8.070300e+0,-6.20e-2,
8.070400e+0,-6.20e-2,
8.070500e+0,-6.20e-2,
8.070600e+0,-6.20e-2,
8.070700e+0,-6.20e-2,
8.070800e+0,-6.20e-2,
8.070900e+0,-5.80e-2,
8.071000e+0,-5.80e-2,
8.071100e+0,-6.20e-2,
8.071200e+0,-6.20e-2,
8.071300e+0,-6.00e-2,
8.071400e+0,-6.00e-2,
8.071500e+0,-6.00e-2,
8.071600e+0,-6.00e-2,
8.071700e+0,-5.80e-2,
8.071800e+0,-5.80e-2,
8.071900e+0,-6.00e-2,
8.072000e+0,-6.00e-2,
8.072100e+0,-6.20e-2,
8.072200e+0,-6.20e-2,
8.072300e+0,-6.00e-2,
8.072400e+0,-6.00e-2,
8.072500e+0,-6.00e-2,
8.072600e+0,-6.00e-2,
8.072700e+0,-6.00e-2,
8.072800e+0,-6.00e-2,
8.072900e+0,-6.00e-2,
8.073000e+0,-6.00e-2,
8.073100e+0,-6.00e-2,
8.073200e+0,-6.00e-2,
8.073300e+0,-6.00e-2,
8.073400e+0,-6.00e-2,
8.073500e+0,-5.80e-2,
8.073600e+0,-5.80e-2,
8.073700e+0,-6.00e-2,
8.073800e+0,-6.00e-2,
8.073900e+0,-5.80e-2,
8.074000e+0,-5.80e-2,
8.074100e+0,-5.80e-2,
8.074200e+0,-5.80e-2,
8.074300e+0,-5.80e-2,
8.074400e+0,-5.80e-2,
8.074500e+0,-5.80e-2,
8.074600e+0,-5.80e-2,
8.074700e+0,-6.20e-2,
8.074800e+0,-6.20e-2,
8.074900e+0,-6.00e-2,
8.075000e+0,-6.00e-2,
8.075100e+0,-6.00e-2,
8.075200e+0,-6.00e-2,
8.075300e+0,-5.80e-2,
8.075400e+0,-5.80e-2,
8.075500e+0,-6.00e-2,
8.075600e+0,-6.00e-2,
8.075700e+0,-6.20e-2,
8.075800e+0,-6.20e-2,
8.075900e+0,-6.20e-2,
8.076000e+0,-6.20e-2,
8.076100e+0,-6.00e-2,
8.076200e+0,-6.00e-2,
8.076300e+0,-6.00e-2,
8.076400e+0,-6.00e-2,
8.076500e+0,-6.20e-2,
8.076600e+0,-6.20e-2,
8.076700e+0,-6.20e-2,
8.076800e+0,-6.20e-2,
8.076900e+0,-5.80e-2,
8.077000e+0,-5.80e-2,
8.077100e+0,-6.00e-2,
8.077200e+0,-6.00e-2,
8.077300e+0,-6.20e-2,
8.077400e+0,-6.20e-2,
8.077500e+0,-6.00e-2,
8.077600e+0,-6.00e-2,
8.077700e+0,-6.20e-2,
8.077800e+0,-6.20e-2,
8.077900e+0,-6.20e-2,
8.078000e+0,-6.20e-2,
8.078100e+0,-6.20e-2,
8.078200e+0,-6.20e-2,
8.078300e+0,-6.20e-2,
8.078400e+0,-6.20e-2,
8.078500e+0,-6.00e-2,
8.078600e+0,-6.00e-2,
8.078700e+0,-6.00e-2,
8.078800e+0,-6.00e-2,
8.078900e+0,-6.20e-2,
8.079000e+0,-6.20e-2,
8.079100e+0,-6.20e-2,
8.079200e+0,-6.20e-2,
8.079300e+0,-6.00e-2,
8.079400e+0,-6.00e-2,
8.079500e+0,-6.00e-2,
8.079600e+0,-6.00e-2,
8.079700e+0,-6.00e-2,
8.079800e+0,-6.00e-2,
8.079900e+0,-6.20e-2,
8.080000e+0,-6.20e-2,
8.080100e+0,-6.20e-2,
8.080200e+0,-6.20e-2,
8.080300e+0,-6.40e-2,
8.080400e+0,-6.40e-2,
8.080500e+0,-6.20e-2,
8.080600e+0,-6.20e-2,
8.080700e+0,-6.20e-2,
8.080800e+0,-6.20e-2,
8.080900e+0,-6.20e-2,
8.081000e+0,-6.20e-2,
8.081100e+0,-6.00e-2,
8.081200e+0,-6.00e-2,
8.081300e+0,-6.20e-2,
8.081400e+0,-6.20e-2,
8.081500e+0,-6.20e-2,
8.081600e+0,-6.20e-2,
8.081700e+0,-5.80e-2,
8.081800e+0,-5.80e-2,
8.081900e+0,-6.20e-2,
8.082000e+0,-6.20e-2,
8.082100e+0,-6.00e-2,
8.082200e+0,-6.00e-2,
8.082300e+0,-6.00e-2,
8.082400e+0,-6.00e-2,
8.082500e+0,-6.00e-2,
8.082600e+0,-6.00e-2,
8.082700e+0,-6.20e-2,
8.082800e+0,-6.20e-2,
8.082900e+0,-6.20e-2,
8.083000e+0,-6.20e-2,
8.083100e+0,-6.00e-2,
8.083200e+0,-6.00e-2,
8.083300e+0,-6.00e-2,
8.083400e+0,-6.00e-2,
8.083500e+0,-6.00e-2,
8.083600e+0,-6.00e-2,
8.083700e+0,-6.00e-2,
8.083800e+0,-6.00e-2,
8.083900e+0,-6.00e-2,
8.084000e+0,-6.00e-2,
8.084100e+0,-6.20e-2,
8.084200e+0,-6.20e-2,
8.084300e+0,-6.00e-2,
8.084400e+0,-6.00e-2,
8.084500e+0,-6.20e-2,
8.084600e+0,-6.20e-2,
8.084700e+0,-6.00e-2,
8.084800e+0,-6.00e-2,
8.084900e+0,-6.00e-2,
8.085000e+0,-6.00e-2,
8.085100e+0,-6.00e-2,
8.085200e+0,-6.00e-2,
8.085300e+0,-6.00e-2,
8.085400e+0,-6.00e-2,
8.085500e+0,-6.00e-2,
8.085600e+0,-6.00e-2,
8.085700e+0,-6.20e-2,
8.085800e+0,-6.20e-2,
8.085900e+0,-6.00e-2,
8.086000e+0,-6.00e-2,
8.086100e+0,-6.00e-2,
8.086200e+0,-6.00e-2,
8.086300e+0,-6.20e-2,
8.086400e+0,-6.20e-2,
8.086500e+0,-6.20e-2,
8.086600e+0,-6.20e-2,
8.086700e+0,-6.20e-2,
8.086800e+0,-6.20e-2,
8.086900e+0,-6.00e-2,
8.087000e+0,-6.00e-2,
8.087100e+0,-6.20e-2,
8.087200e+0,-6.20e-2,
8.087300e+0,-6.20e-2,
8.087400e+0,-6.20e-2,
8.087500e+0,-6.00e-2,
8.087600e+0,-6.00e-2,
8.087700e+0,-6.20e-2,
8.087800e+0,-6.20e-2,
8.087900e+0,-6.20e-2,
8.088000e+0,-6.20e-2,
8.088100e+0,-6.20e-2,
8.088200e+0,-6.20e-2,
8.088300e+0,-6.20e-2,
8.088400e+0,-6.20e-2,
8.088500e+0,-6.20e-2,
8.088600e+0,-6.20e-2,
8.088700e+0,-6.20e-2,
8.088800e+0,-6.20e-2,
8.088900e+0,-5.80e-2,
