Memory Length,4000,
Trigger Level,2.56900e+00,
Source,CH2,
Probe,1.0X,
Vertical Units,V,
Vertical Scale,2.00000e-02,
Vertical Position,-2.93600e-01,
Horizontal Units,S,
Horizontal Scale,2.50000e-02,
Horizontal Position,7.3850000e+00,
Horizontal Mode,Main,
Sampling Period,1.00000e-04,
Firmware,V1.14,
Time, ,
Mode,Detail,
Waveform Data,
7.185000e+0,3.59e-1,
7.185100e+0,3.59e-1,
7.185200e+0,3.59e-1,
7.185300e+0,3.58e-1,
7.185400e+0,3.58e-1,
7.185500e+0,3.58e-1,
7.185600e+0,3.58e-1,
7.185700e+0,3.58e-1,
7.185800e+0,3.58e-1,
7.185900e+0,3.59e-1,
7.186000e+0,3.59e-1,
7.186100e+0,3.58e-1,
7.186200e+0,3.58e-1,
7.186300e+0,3.59e-1,
7.186400e+0,3.59e-1,
7.186500e+0,3.58e-1,
7.186600e+0,3.58e-1,
7.186700e+0,3.59e-1,
7.186800e+0,3.59e-1,
7.186900e+0,3.59e-1,
7.187000e+0,3.59e-1,
7.187100e+0,3.58e-1,
7.187200e+0,3.58e-1,
7.187300e+0,3.58e-1,
7.187400e+0,3.58e-1,
7.187500e+0,3.58e-1,
7.187600e+0,3.58e-1,
7.187700e+0,3.58e-1,
7.187800e+0,3.58e-1,
7.187900e+0,3.58e-1,
7.188000e+0,3.58e-1,
7.188100e+0,3.58e-1,
7.188200e+0,3.58e-1,
7.188300e+0,3.58e-1,
7.188400e+0,3.58e-1,
7.188500e+0,3.58e-1,
7.188600e+0,3.58e-1,
7.188700e+0,3.59e-1,
7.188800e+0,3.59e-1,
7.188900e+0,3.58e-1,
7.189000e+0,3.58e-1,
7.189100e+0,3.58e-1,
7.189200e+0,3.58e-1,
7.189300e+0,3.58e-1,
7.189400e+0,3.58e-1,
7.189500e+0,3.58e-1,
7.189600e+0,3.58e-1,
7.189700e+0,3.58e-1,
7.189800e+0,3.58e-1,
7.189900e+0,3.58e-1,
7.190000e+0,3.58e-1,
7.190100e+0,3.58e-1,
7.190200e+0,3.58e-1,
7.190300e+0,3.58e-1,
7.190400e+0,3.58e-1,
7.190500e+0,3.58e-1,
7.190600e+0,3.58e-1,
7.190700e+0,3.58e-1,
7.190800e+0,3.58e-1,
7.190900e+0,3.58e-1,
7.191000e+0,3.58e-1,
7.191100e+0,3.58e-1,
7.191200e+0,3.58e-1,
7.191300e+0,3.58e-1,
7.191400e+0,3.58e-1,
7.191500e+0,3.58e-1,
7.191600e+0,3.58e-1,
7.191700e+0,3.58e-1,
7.191800e+0,3.58e-1,
7.191900e+0,3.58e-1,
7.192000e+0,3.58e-1,
7.192100e+0,3.58e-1,
7.192200e+0,3.58e-1,
7.192300e+0,3.58e-1,
7.192400e+0,3.58e-1,
7.192500e+0,3.58e-1,
7.192600e+0,3.58e-1,
7.192700e+0,3.58e-1,
7.192800e+0,3.58e-1,
7.192900e+0,3.58e-1,
7.193000e+0,3.58e-1,
7.193100e+0,3.57e-1,
7.193200e+0,3.57e-1,
7.193300e+0,3.58e-1,
7.193400e+0,3.58e-1,
7.193500e+0,3.58e-1,
7.193600e+0,3.58e-1,
7.193700e+0,3.58e-1,
7.193800e+0,3.58e-1,
7.193900e+0,3.58e-1,
7.194000e+0,3.58e-1,
7.194100e+0,3.58e-1,
7.194200e+0,3.58e-1,
7.194300e+0,3.58e-1,
7.194400e+0,3.58e-1,
7.194500e+0,3.57e-1,
7.194600e+0,3.57e-1,
7.194700e+0,3.58e-1,
7.194800e+0,3.58e-1,
7.194900e+0,3.58e-1,
7.195000e+0,3.58e-1,
7.195100e+0,3.58e-1,
7.195200e+0,3.58e-1,
7.195300e+0,3.58e-1,
7.195400e+0,3.58e-1,
7.195500e+0,3.58e-1,
7.195600e+0,3.58e-1,
7.195700e+0,3.58e-1,
7.195800e+0,3.58e-1,
7.195900e+0,3.58e-1,
7.196000e+0,3.58e-1,
7.196100e+0,3.58e-1,
7.196200e+0,3.58e-1,
7.196300e+0,3.58e-1,
7.196400e+0,3.58e-1,
7.196500e+0,3.57e-1,
7.196600e+0,3.57e-1,
7.196700e+0,3.58e-1,
7.196800e+0,3.58e-1,
7.196900e+0,3.58e-1,
7.197000e+0,3.58e-1,
7.197100e+0,3.58e-1,
7.197200e+0,3.58e-1,
7.197300e+0,3.58e-1,
7.197400e+0,3.58e-1,
7.197500e+0,3.58e-1,
7.197600e+0,3.58e-1,
7.197700e+0,3.58e-1,
7.197800e+0,3.58e-1,
7.197900e+0,3.58e-1,
7.198000e+0,3.58e-1,
7.198100e+0,3.58e-1,
7.198200e+0,3.58e-1,
7.198300e+0,3.58e-1,
7.198400e+0,3.58e-1,
7.198500e+0,3.58e-1,
7.198600e+0,3.58e-1,
7.198700e+0,3.57e-1,
7.198800e+0,3.57e-1,
7.198900e+0,3.58e-1,
7.199000e+0,3.58e-1,
7.199100e+0,3.58e-1,
7.199200e+0,3.58e-1,
7.199300e+0,3.58e-1,
7.199400e+0,3.58e-1,
7.199500e+0,3.58e-1,
7.199600e+0,3.58e-1,
7.199700e+0,3.58e-1,
7.199800e+0,3.58e-1,
7.199900e+0,3.58e-1,
7.200000e+0,3.58e-1,
7.200100e+0,3.58e-1,
7.200200e+0,3.58e-1,
7.200300e+0,3.58e-1,
7.200400e+0,3.58e-1,
7.200500e+0,3.58e-1,
7.200600e+0,3.58e-1,
7.200700e+0,3.58e-1,
7.200800e+0,3.58e-1,
7.200900e+0,3.58e-1,
7.201000e+0,3.58e-1,
7.201100e+0,3.58e-1,
7.201200e+0,3.58e-1,
7.201300e+0,3.57e-1,
7.201400e+0,3.57e-1,
7.201500e+0,3.58e-1,
7.201600e+0,3.58e-1,
7.201700e+0,3.58e-1,
7.201800e+0,3.58e-1,
7.201900e+0,3.58e-1,
7.202000e+0,3.58e-1,
7.202100e+0,3.58e-1,
7.202200e+0,3.58e-1,
7.202300e+0,3.58e-1,
7.202400e+0,3.58e-1,
7.202500e+0,3.57e-1,
7.202600e+0,3.57e-1,
7.202700e+0,3.58e-1,
7.202800e+0,3.58e-1,
7.202900e+0,3.58e-1,
7.203000e+0,3.58e-1,
7.203100e+0,3.58e-1,
7.203200e+0,3.58e-1,
7.203300e+0,3.58e-1,
7.203400e+0,3.58e-1,
7.203500e+0,3.58e-1,
7.203600e+0,3.58e-1,
7.203700e+0,3.58e-1,
7.203800e+0,3.58e-1,
7.203900e+0,3.57e-1,
7.204000e+0,3.57e-1,
7.204100e+0,3.58e-1,
7.204200e+0,3.58e-1,
7.204300e+0,3.58e-1,
7.204400e+0,3.58e-1,
7.204500e+0,3.58e-1,
7.204600e+0,3.58e-1,
7.204700e+0,3.58e-1,
7.204800e+0,3.58e-1,
7.204900e+0,3.58e-1,
7.205000e+0,3.58e-1,
7.205100e+0,3.57e-1,
7.205200e+0,3.57e-1,
7.205300e+0,3.57e-1,
7.205400e+0,3.57e-1,
7.205500e+0,3.58e-1,
7.205600e+0,3.58e-1,
7.205700e+0,3.57e-1,
7.205800e+0,3.57e-1,
7.205900e+0,3.57e-1,
7.206000e+0,3.57e-1,
7.206100e+0,3.57e-1,
7.206200e+0,3.57e-1,
7.206300e+0,3.57e-1,
7.206400e+0,3.57e-1,
7.206500e+0,3.58e-1,
7.206600e+0,3.58e-1,
7.206700e+0,3.58e-1,
7.206800e+0,3.58e-1,
7.206900e+0,3.57e-1,
7.207000e+0,3.57e-1,
7.207100e+0,3.57e-1,
7.207200e+0,3.57e-1,
7.207300e+0,3.57e-1,
7.207400e+0,3.57e-1,
7.207500e+0,3.57e-1,
7.207600e+0,3.57e-1,
7.207700e+0,3.57e-1,
7.207800e+0,3.57e-1,
7.207900e+0,3.57e-1,
7.208000e+0,3.57e-1,
7.208100e+0,3.58e-1,
7.208200e+0,3.58e-1,
7.208300e+0,3.57e-1,
7.208400e+0,3.57e-1,
7.208500e+0,3.57e-1,
7.208600e+0,3.57e-1,
7.208700e+0,3.58e-1,
7.208800e+0,3.58e-1,
7.208900e+0,3.58e-1,
7.209000e+0,3.58e-1,
7.209100e+0,3.57e-1,
7.209200e+0,3.57e-1,
7.209300e+0,3.57e-1,
7.209400e+0,3.57e-1,
7.209500e+0,3.58e-1,
7.209600e+0,3.58e-1,
7.209700e+0,3.58e-1,
7.209800e+0,3.58e-1,
7.209900e+0,3.58e-1,
7.210000e+0,3.58e-1,
7.210100e+0,3.57e-1,
7.210200e+0,3.57e-1,
7.210300e+0,3.58e-1,
7.210400e+0,3.58e-1,
7.210500e+0,3.57e-1,
7.210600e+0,3.57e-1,
7.210700e+0,3.58e-1,
7.210800e+0,3.58e-1,
7.210900e+0,3.57e-1,
7.211000e+0,3.57e-1,
7.211100e+0,3.57e-1,
7.211200e+0,3.57e-1,
7.211300e+0,3.57e-1,
7.211400e+0,3.57e-1,
7.211500e+0,3.57e-1,
7.211600e+0,3.57e-1,
7.211700e+0,3.57e-1,
7.211800e+0,3.57e-1,
7.211900e+0,3.58e-1,
7.212000e+0,3.58e-1,
7.212100e+0,3.57e-1,
7.212200e+0,3.57e-1,
7.212300e+0,3.58e-1,
7.212400e+0,3.58e-1,
7.212500e+0,3.57e-1,
7.212600e+0,3.57e-1,
7.212700e+0,3.58e-1,
7.212800e+0,3.58e-1,
7.212900e+0,3.58e-1,
7.213000e+0,3.58e-1,
7.213100e+0,3.57e-1,
7.213200e+0,3.57e-1,
7.213300e+0,3.57e-1,
7.213400e+0,3.57e-1,
7.213500e+0,3.58e-1,
7.213600e+0,3.58e-1,
7.213700e+0,3.58e-1,
7.213800e+0,3.58e-1,
7.213900e+0,3.57e-1,
7.214000e+0,3.57e-1,
7.214100e+0,3.57e-1,
7.214200e+0,3.57e-1,
7.214300e+0,3.57e-1,
7.214400e+0,3.57e-1,
7.214500e+0,3.57e-1,
7.214600e+0,3.57e-1,
7.214700e+0,3.58e-1,
7.214800e+0,3.58e-1,
7.214900e+0,3.57e-1,
7.215000e+0,3.57e-1,
7.215100e+0,3.58e-1,
7.215200e+0,3.58e-1,
7.215300e+0,3.57e-1,
7.215400e+0,3.57e-1,
7.215500e+0,3.58e-1,
7.215600e+0,3.58e-1,
7.215700e+0,3.57e-1,
7.215800e+0,3.57e-1,
7.215900e+0,3.57e-1,
7.216000e+0,3.57e-1,
7.216100e+0,3.58e-1,
7.216200e+0,3.58e-1,
7.216300e+0,3.57e-1,
7.216400e+0,3.57e-1,
7.216500e+0,3.57e-1,
7.216600e+0,3.57e-1,
7.216700e+0,3.57e-1,
7.216800e+0,3.57e-1,
7.216900e+0,3.58e-1,
7.217000e+0,3.58e-1,
7.217100e+0,3.58e-1,
7.217200e+0,3.58e-1,
7.217300e+0,3.57e-1,
7.217400e+0,3.57e-1,
7.217500e+0,3.57e-1,
7.217600e+0,3.57e-1,
7.217700e+0,3.57e-1,
7.217800e+0,3.57e-1,
7.217900e+0,3.57e-1,
7.218000e+0,3.57e-1,
7.218100e+0,3.57e-1,
7.218200e+0,3.57e-1,
7.218300e+0,3.57e-1,
7.218400e+0,3.57e-1,
7.218500e+0,3.57e-1,
7.218600e+0,3.57e-1,
7.218700e+0,3.57e-1,
7.218800e+0,3.57e-1,
7.218900e+0,3.58e-1,
7.219000e+0,3.58e-1,
7.219100e+0,3.57e-1,
7.219200e+0,3.57e-1,
7.219300e+0,3.57e-1,
7.219400e+0,3.57e-1,
7.219500e+0,3.57e-1,
7.219600e+0,3.57e-1,
7.219700e+0,3.57e-1,
7.219800e+0,3.57e-1,
7.219900e+0,3.58e-1,
7.220000e+0,3.58e-1,
7.220100e+0,3.57e-1,
7.220200e+0,3.57e-1,
7.220300e+0,3.57e-1,
7.220400e+0,3.57e-1,
7.220500e+0,3.57e-1,
7.220600e+0,3.57e-1,
7.220700e+0,3.57e-1,
7.220800e+0,3.57e-1,
7.220900e+0,3.57e-1,
7.221000e+0,3.57e-1,
7.221100e+0,3.57e-1,
7.221200e+0,3.57e-1,
7.221300e+0,3.57e-1,
7.221400e+0,3.57e-1,
7.221500e+0,3.57e-1,
7.221600e+0,3.57e-1,
7.221700e+0,3.57e-1,
7.221800e+0,3.57e-1,
7.221900e+0,3.57e-1,
7.222000e+0,3.57e-1,
7.222100e+0,3.57e-1,
7.222200e+0,3.57e-1,
7.222300e+0,3.56e-1,
7.222400e+0,3.56e-1,
7.222500e+0,3.57e-1,
7.222600e+0,3.57e-1,
7.222700e+0,3.57e-1,
7.222800e+0,3.57e-1,
7.222900e+0,3.57e-1,
7.223000e+0,3.57e-1,
7.223100e+0,3.57e-1,
7.223200e+0,3.57e-1,
7.223300e+0,3.57e-1,
7.223400e+0,3.57e-1,
7.223500e+0,3.57e-1,
7.223600e+0,3.57e-1,
7.223700e+0,3.57e-1,
7.223800e+0,3.57e-1,
7.223900e+0,3.57e-1,
7.224000e+0,3.57e-1,
7.224100e+0,3.57e-1,
7.224200e+0,3.57e-1,
7.224300e+0,3.57e-1,
7.224400e+0,3.57e-1,
7.224500e+0,3.57e-1,
7.224600e+0,3.57e-1,
7.224700e+0,3.57e-1,
7.224800e+0,3.57e-1,
7.224900e+0,3.56e-1,
7.225000e+0,3.56e-1,
7.225100e+0,3.57e-1,
7.225200e+0,3.57e-1,
7.225300e+0,3.57e-1,
7.225400e+0,3.57e-1,
7.225500e+0,3.57e-1,
7.225600e+0,3.57e-1,
7.225700e+0,3.56e-1,
7.225800e+0,3.56e-1,
7.225900e+0,3.57e-1,
7.226000e+0,3.57e-1,
7.226100e+0,3.57e-1,
7.226200e+0,3.57e-1,
7.226300e+0,3.57e-1,
7.226400e+0,3.57e-1,
7.226500e+0,3.56e-1,
7.226600e+0,3.56e-1,
7.226700e+0,3.57e-1,
7.226800e+0,3.57e-1,
7.226900e+0,3.57e-1,
7.227000e+0,3.57e-1,
7.227100e+0,3.57e-1,
7.227200e+0,3.57e-1,
7.227300e+0,3.58e-1,
7.227400e+0,3.58e-1,
7.227500e+0,3.57e-1,
7.227600e+0,3.57e-1,
7.227700e+0,3.57e-1,
7.227800e+0,3.57e-1,
7.227900e+0,3.57e-1,
7.228000e+0,3.57e-1,
7.228100e+0,3.57e-1,
7.228200e+0,3.57e-1,
7.228300e+0,3.57e-1,
7.228400e+0,3.57e-1,
7.228500e+0,3.56e-1,
7.228600e+0,3.56e-1,
7.228700e+0,3.57e-1,
7.228800e+0,3.57e-1,
7.228900e+0,3.57e-1,
7.229000e+0,3.57e-1,
7.229100e+0,3.57e-1,
7.229200e+0,3.57e-1,
7.229300e+0,3.57e-1,
7.229400e+0,3.57e-1,
7.229500e+0,3.56e-1,
7.229600e+0,3.56e-1,
7.229700e+0,3.57e-1,
7.229800e+0,3.57e-1,
7.229900e+0,3.57e-1,
7.230000e+0,3.57e-1,
7.230100e+0,3.57e-1,
7.230200e+0,3.57e-1,
7.230300e+0,3.56e-1,
7.230400e+0,3.56e-1,
7.230500e+0,3.57e-1,
7.230600e+0,3.57e-1,
7.230700e+0,3.57e-1,
7.230800e+0,3.57e-1,
7.230900e+0,3.56e-1,
7.231000e+0,3.56e-1,
7.231100e+0,3.57e-1,
7.231200e+0,3.57e-1,
7.231300e+0,3.56e-1,
7.231400e+0,3.56e-1,
7.231500e+0,3.57e-1,
7.231600e+0,3.57e-1,
7.231700e+0,3.57e-1,
7.231800e+0,3.57e-1,
7.231900e+0,3.56e-1,
7.232000e+0,3.56e-1,
7.232100e+0,3.57e-1,
7.232200e+0,3.57e-1,
7.232300e+0,3.57e-1,
7.232400e+0,3.57e-1,
7.232500e+0,3.57e-1,
7.232600e+0,3.57e-1,
7.232700e+0,3.57e-1,
7.232800e+0,3.57e-1,
7.232900e+0,3.56e-1,
7.233000e+0,3.56e-1,
7.233100e+0,3.56e-1,
7.233200e+0,3.56e-1,
7.233300e+0,3.57e-1,
7.233400e+0,3.57e-1,
7.233500e+0,3.56e-1,
7.233600e+0,3.56e-1,
7.233700e+0,3.56e-1,
7.233800e+0,3.56e-1,
7.233900e+0,3.56e-1,
7.234000e+0,3.56e-1,
7.234100e+0,3.57e-1,
7.234200e+0,3.57e-1,
7.234300e+0,3.56e-1,
7.234400e+0,3.56e-1,
7.234500e+0,3.56e-1,
7.234600e+0,3.56e-1,
7.234700e+0,3.57e-1,
7.234800e+0,3.57e-1,
7.234900e+0,3.56e-1,
7.235000e+0,3.56e-1,
7.235100e+0,3.56e-1,
7.235200e+0,3.56e-1,
7.235300e+0,3.57e-1,
7.235400e+0,3.57e-1,
7.235500e+0,3.56e-1,
7.235600e+0,3.56e-1,
7.235700e+0,3.57e-1,
7.235800e+0,3.57e-1,
7.235900e+0,3.56e-1,
7.236000e+0,3.56e-1,
7.236100e+0,3.57e-1,
7.236200e+0,3.57e-1,
7.236300e+0,3.56e-1,
7.236400e+0,3.56e-1,
7.236500e+0,3.56e-1,
7.236600e+0,3.56e-1,
7.236700e+0,3.57e-1,
7.236800e+0,3.57e-1,
7.236900e+0,3.57e-1,
7.237000e+0,3.57e-1,
7.237100e+0,3.57e-1,
7.237200e+0,3.57e-1,
7.237300e+0,3.56e-1,
7.237400e+0,3.56e-1,
7.237500e+0,3.56e-1,
7.237600e+0,3.56e-1,
7.237700e+0,3.56e-1,
7.237800e+0,3.56e-1,
7.237900e+0,3.56e-1,
7.238000e+0,3.56e-1,
7.238100e+0,3.56e-1,
7.238200e+0,3.56e-1,
7.238300e+0,3.57e-1,
7.238400e+0,3.57e-1,
7.238500e+0,3.56e-1,
7.238600e+0,3.56e-1,
7.238700e+0,3.57e-1,
7.238800e+0,3.57e-1,
7.238900e+0,3.56e-1,
7.239000e+0,3.56e-1,
7.239100e+0,3.56e-1,
7.239200e+0,3.56e-1,
7.239300e+0,3.56e-1,
7.239400e+0,3.56e-1,
7.239500e+0,3.56e-1,
7.239600e+0,3.56e-1,
7.239700e+0,3.56e-1,
7.239800e+0,3.56e-1,
7.239900e+0,3.56e-1,
7.240000e+0,3.56e-1,
7.240100e+0,3.57e-1,
7.240200e+0,3.57e-1,
7.240300e+0,3.56e-1,
7.240400e+0,3.56e-1,
7.240500e+0,3.56e-1,
7.240600e+0,3.56e-1,
7.240700e+0,3.56e-1,
7.240800e+0,3.56e-1,
7.240900e+0,3.56e-1,
7.241000e+0,3.56e-1,
7.241100e+0,3.56e-1,
7.241200e+0,3.56e-1,
7.241300e+0,3.56e-1,
7.241400e+0,3.56e-1,
7.241500e+0,3.56e-1,
7.241600e+0,3.56e-1,
7.241700e+0,3.56e-1,
7.241800e+0,3.56e-1,
7.241900e+0,3.56e-1,
7.242000e+0,3.56e-1,
7.242100e+0,3.56e-1,
7.242200e+0,3.56e-1,
7.242300e+0,3.56e-1,
7.242400e+0,3.56e-1,
7.242500e+0,3.56e-1,
7.242600e+0,3.56e-1,
7.242700e+0,3.56e-1,
7.242800e+0,3.56e-1,
7.242900e+0,3.57e-1,
7.243000e+0,3.57e-1,
7.243100e+0,3.56e-1,
7.243200e+0,3.56e-1,
7.243300e+0,3.56e-1,
7.243400e+0,3.56e-1,
7.243500e+0,3.56e-1,
7.243600e+0,3.56e-1,
7.243700e+0,3.56e-1,
7.243800e+0,3.56e-1,
7.243900e+0,3.56e-1,
7.244000e+0,3.56e-1,
7.244100e+0,3.56e-1,
7.244200e+0,3.56e-1,
7.244300e+0,3.56e-1,
7.244400e+0,3.56e-1,
7.244500e+0,3.56e-1,
7.244600e+0,3.56e-1,
7.244700e+0,3.56e-1,
7.244800e+0,3.56e-1,
7.244900e+0,3.56e-1,
7.245000e+0,3.56e-1,
7.245100e+0,3.56e-1,
7.245200e+0,3.56e-1,
7.245300e+0,3.56e-1,
7.245400e+0,3.56e-1,
7.245500e+0,3.56e-1,
7.245600e+0,3.56e-1,
7.245700e+0,3.56e-1,
7.245800e+0,3.56e-1,
7.245900e+0,3.56e-1,
7.246000e+0,3.56e-1,
7.246100e+0,3.56e-1,
7.246200e+0,3.56e-1,
7.246300e+0,3.56e-1,
7.246400e+0,3.56e-1,
7.246500e+0,3.56e-1,
7.246600e+0,3.56e-1,
7.246700e+0,3.56e-1,
7.246800e+0,3.56e-1,
7.246900e+0,3.56e-1,
7.247000e+0,3.56e-1,
7.247100e+0,3.56e-1,
7.247200e+0,3.56e-1,
7.247300e+0,3.56e-1,
7.247400e+0,3.56e-1,
7.247500e+0,3.56e-1,
7.247600e+0,3.56e-1,
7.247700e+0,3.56e-1,
7.247800e+0,3.56e-1,
7.247900e+0,3.56e-1,
7.248000e+0,3.56e-1,
7.248100e+0,3.56e-1,
7.248200e+0,3.56e-1,
7.248300e+0,3.56e-1,
7.248400e+0,3.56e-1,
7.248500e+0,3.56e-1,
7.248600e+0,3.56e-1,
7.248700e+0,3.56e-1,
7.248800e+0,3.56e-1,
7.248900e+0,3.56e-1,
7.249000e+0,3.56e-1,
7.249100e+0,3.56e-1,
7.249200e+0,3.56e-1,
7.249300e+0,3.56e-1,
7.249400e+0,3.56e-1,
7.249500e+0,3.56e-1,
7.249600e+0,3.56e-1,
7.249700e+0,3.56e-1,
7.249800e+0,3.56e-1,
7.249900e+0,3.56e-1,
7.250000e+0,3.56e-1,
7.250100e+0,3.56e-1,
7.250200e+0,3.56e-1,
7.250300e+0,3.56e-1,
7.250400e+0,3.56e-1,
7.250500e+0,3.56e-1,
7.250600e+0,3.56e-1,
7.250700e+0,3.56e-1,
7.250800e+0,3.56e-1,
7.250900e+0,3.56e-1,
7.251000e+0,3.56e-1,
7.251100e+0,3.55e-1,
7.251200e+0,3.55e-1,
7.251300e+0,3.55e-1,
7.251400e+0,3.55e-1,
7.251500e+0,3.55e-1,
7.251600e+0,3.55e-1,
7.251700e+0,3.55e-1,
7.251800e+0,3.55e-1,
7.251900e+0,3.55e-1,
7.252000e+0,3.55e-1,
7.252100e+0,3.56e-1,
7.252200e+0,3.56e-1,
7.252300e+0,3.56e-1,
7.252400e+0,3.56e-1,
7.252500e+0,3.55e-1,
7.252600e+0,3.55e-1,
7.252700e+0,3.55e-1,
7.252800e+0,3.55e-1,
7.252900e+0,3.55e-1,
7.253000e+0,3.55e-1,
7.253100e+0,3.55e-1,
7.253200e+0,3.55e-1,
7.253300e+0,3.55e-1,
7.253400e+0,3.55e-1,
7.253500e+0,3.55e-1,
7.253600e+0,3.55e-1,
7.253700e+0,3.56e-1,
7.253800e+0,3.56e-1,
7.253900e+0,3.54e-1,
7.254000e+0,3.54e-1,
7.254100e+0,3.56e-1,
7.254200e+0,3.56e-1,
7.254300e+0,3.55e-1,
7.254400e+0,3.55e-1,
7.254500e+0,3.56e-1,
7.254600e+0,3.56e-1,
7.254700e+0,3.56e-1,
7.254800e+0,3.56e-1,
7.254900e+0,3.56e-1,
7.255000e+0,3.56e-1,
7.255100e+0,3.55e-1,
7.255200e+0,3.55e-1,
7.255300e+0,3.55e-1,
7.255400e+0,3.55e-1,
7.255500e+0,3.55e-1,
7.255600e+0,3.55e-1,
7.255700e+0,3.55e-1,
7.255800e+0,3.55e-1,
7.255900e+0,3.55e-1,
7.256000e+0,3.55e-1,
7.256100e+0,3.55e-1,
7.256200e+0,3.55e-1,
7.256300e+0,3.55e-1,
7.256400e+0,3.55e-1,
7.256500e+0,3.55e-1,
7.256600e+0,3.55e-1,
7.256700e+0,3.55e-1,
7.256800e+0,3.55e-1,
7.256900e+0,3.55e-1,
7.257000e+0,3.55e-1,
7.257100e+0,3.55e-1,
7.257200e+0,3.55e-1,
7.257300e+0,3.55e-1,
7.257400e+0,3.55e-1,
7.257500e+0,3.55e-1,
7.257600e+0,3.55e-1,
7.257700e+0,3.55e-1,
7.257800e+0,3.55e-1,
7.257900e+0,3.55e-1,
7.258000e+0,3.55e-1,
7.258100e+0,3.55e-1,
7.258200e+0,3.55e-1,
7.258300e+0,3.55e-1,
7.258400e+0,3.55e-1,
7.258500e+0,3.55e-1,
7.258600e+0,3.55e-1,
7.258700e+0,3.54e-1,
7.258800e+0,3.54e-1,
7.258900e+0,3.54e-1,
7.259000e+0,3.54e-1,
7.259100e+0,3.55e-1,
7.259200e+0,3.55e-1,
7.259300e+0,3.54e-1,
7.259400e+0,3.54e-1,
7.259500e+0,3.55e-1,
7.259600e+0,3.55e-1,
7.259700e+0,3.54e-1,
7.259800e+0,3.54e-1,
7.259900e+0,3.55e-1,
7.260000e+0,3.55e-1,
7.260100e+0,3.54e-1,
7.260200e+0,3.54e-1,
7.260300e+0,3.54e-1,
7.260400e+0,3.54e-1,
7.260500e+0,3.54e-1,
7.260600e+0,3.54e-1,
7.260700e+0,3.54e-1,
7.260800e+0,3.54e-1,
7.260900e+0,3.54e-1,
7.261000e+0,3.54e-1,
7.261100e+0,3.54e-1,
7.261200e+0,3.54e-1,
7.261300e+0,3.54e-1,
7.261400e+0,3.54e-1,
7.261500e+0,3.54e-1,
7.261600e+0,3.54e-1,
7.261700e+0,3.54e-1,
7.261800e+0,3.54e-1,
7.261900e+0,3.54e-1,
7.262000e+0,3.54e-1,
7.262100e+0,3.54e-1,
7.262200e+0,3.54e-1,
7.262300e+0,3.54e-1,
7.262400e+0,3.54e-1,
7.262500e+0,3.54e-1,
7.262600e+0,3.54e-1,
7.262700e+0,3.53e-1,
7.262800e+0,3.53e-1,
7.262900e+0,3.54e-1,
7.263000e+0,3.54e-1,
7.263100e+0,3.53e-1,
7.263200e+0,3.53e-1,
7.263300e+0,3.53e-1,
7.263400e+0,3.53e-1,
7.263500e+0,3.53e-1,
7.263600e+0,3.53e-1,
7.263700e+0,3.54e-1,
7.263800e+0,3.54e-1,
7.263900e+0,3.54e-1,
7.264000e+0,3.54e-1,
7.264100e+0,3.53e-1,
7.264200e+0,3.53e-1,
7.264300e+0,3.53e-1,
7.264400e+0,3.53e-1,
7.264500e+0,3.53e-1,
7.264600e+0,3.53e-1,
7.264700e+0,3.53e-1,
7.264800e+0,3.53e-1,
7.264900e+0,3.54e-1,
7.265000e+0,3.54e-1,
7.265100e+0,3.54e-1,
7.265200e+0,3.54e-1,
7.265300e+0,3.54e-1,
7.265400e+0,3.54e-1,
7.265500e+0,3.53e-1,
7.265600e+0,3.53e-1,
7.265700e+0,3.53e-1,
7.265800e+0,3.53e-1,
7.265900e+0,3.52e-1,
7.266000e+0,3.52e-1,
7.266100e+0,3.53e-1,
7.266200e+0,3.53e-1,
7.266300e+0,3.53e-1,
7.266400e+0,3.53e-1,
7.266500e+0,3.53e-1,
7.266600e+0,3.53e-1,
7.266700e+0,3.52e-1,
7.266800e+0,3.52e-1,
7.266900e+0,3.53e-1,
7.267000e+0,3.53e-1,
7.267100e+0,3.53e-1,
7.267200e+0,3.53e-1,
7.267300e+0,3.52e-1,
7.267400e+0,3.52e-1,
7.267500e+0,3.53e-1,
7.267600e+0,3.53e-1,
7.267700e+0,3.52e-1,
7.267800e+0,3.52e-1,
7.267900e+0,3.52e-1,
7.268000e+0,3.52e-1,
7.268100e+0,3.52e-1,
7.268200e+0,3.52e-1,
7.268300e+0,3.52e-1,
7.268400e+0,3.52e-1,
7.268500e+0,3.52e-1,
7.268600e+0,3.52e-1,
7.268700e+0,3.52e-1,
7.268800e+0,3.52e-1,
7.268900e+0,3.52e-1,
7.269000e+0,3.52e-1,
7.269100e+0,3.52e-1,
7.269200e+0,3.52e-1,
7.269300e+0,3.52e-1,
7.269400e+0,3.52e-1,
7.269500e+0,3.52e-1,
7.269600e+0,3.52e-1,
7.269700e+0,3.52e-1,
7.269800e+0,3.52e-1,
7.269900e+0,3.52e-1,
7.270000e+0,3.52e-1,
7.270100e+0,3.52e-1,
7.270200e+0,3.52e-1,
7.270300e+0,3.52e-1,
7.270400e+0,3.52e-1,
7.270500e+0,3.52e-1,
7.270600e+0,3.52e-1,
7.270700e+0,3.52e-1,
7.270800e+0,3.52e-1,
7.270900e+0,3.52e-1,
7.271000e+0,3.52e-1,
7.271100e+0,3.52e-1,
7.271200e+0,3.52e-1,
7.271300e+0,3.52e-1,
7.271400e+0,3.52e-1,
7.271500e+0,3.52e-1,
7.271600e+0,3.52e-1,
7.271700e+0,3.52e-1,
7.271800e+0,3.52e-1,
7.271900e+0,3.52e-1,
7.272000e+0,3.52e-1,
7.272100e+0,3.52e-1,
7.272200e+0,3.52e-1,
7.272300e+0,3.52e-1,
7.272400e+0,3.52e-1,
7.272500e+0,3.51e-1,
7.272600e+0,3.51e-1,
7.272700e+0,3.51e-1,
7.272800e+0,3.51e-1,
7.272900e+0,3.52e-1,
7.273000e+0,3.52e-1,
7.273100e+0,3.51e-1,
7.273200e+0,3.51e-1,
7.273300e+0,3.52e-1,
7.273400e+0,3.52e-1,
7.273500e+0,3.51e-1,
7.273600e+0,3.51e-1,
7.273700e+0,3.51e-1,
7.273800e+0,3.51e-1,
7.273900e+0,3.52e-1,
7.274000e+0,3.52e-1,
7.274100e+0,3.52e-1,
7.274200e+0,3.52e-1,
7.274300e+0,3.52e-1,
7.274400e+0,3.52e-1,
7.274500e+0,3.51e-1,
7.274600e+0,3.51e-1,
7.274700e+0,3.51e-1,
7.274800e+0,3.51e-1,
7.274900e+0,3.51e-1,
7.275000e+0,3.51e-1,
7.275100e+0,3.51e-1,
7.275200e+0,3.51e-1,
7.275300e+0,3.51e-1,
7.275400e+0,3.51e-1,
7.275500e+0,3.51e-1,
7.275600e+0,3.51e-1,
7.275700e+0,3.51e-1,
7.275800e+0,3.51e-1,
7.275900e+0,3.51e-1,
7.276000e+0,3.51e-1,
7.276100e+0,3.51e-1,
7.276200e+0,3.51e-1,
7.276300e+0,3.50e-1,
7.276400e+0,3.50e-1,
7.276500e+0,3.50e-1,
7.276600e+0,3.50e-1,
7.276700e+0,3.50e-1,
7.276800e+0,3.50e-1,
7.276900e+0,3.50e-1,
7.277000e+0,3.50e-1,
7.277100e+0,3.50e-1,
7.277200e+0,3.50e-1,
7.277300e+0,3.50e-1,
7.277400e+0,3.50e-1,
7.277500e+0,3.49e-1,
7.277600e+0,3.49e-1,
7.277700e+0,3.50e-1,
7.277800e+0,3.50e-1,
7.277900e+0,3.50e-1,
7.278000e+0,3.50e-1,
7.278100e+0,3.49e-1,
7.278200e+0,3.49e-1,
7.278300e+0,3.50e-1,
7.278400e+0,3.50e-1,
7.278500e+0,3.49e-1,
7.278600e+0,3.49e-1,
7.278700e+0,3.49e-1,
7.278800e+0,3.49e-1,
7.278900e+0,3.48e-1,
7.279000e+0,3.48e-1,
7.279100e+0,3.49e-1,
7.279200e+0,3.49e-1,
7.279300e+0,3.48e-1,
7.279400e+0,3.48e-1,
7.279500e+0,3.49e-1,
7.279600e+0,3.49e-1,
7.279700e+0,3.49e-1,
7.279800e+0,3.49e-1,
7.279900e+0,3.48e-1,
7.280000e+0,3.48e-1,
7.280100e+0,3.48e-1,
7.280200e+0,3.48e-1,
7.280300e+0,3.48e-1,
7.280400e+0,3.48e-1,
7.280500e+0,3.48e-1,
7.280600e+0,3.48e-1,
7.280700e+0,3.49e-1,
7.280800e+0,3.49e-1,
7.280900e+0,3.48e-1,
7.281000e+0,3.48e-1,
7.281100e+0,3.48e-1,
7.281200e+0,3.48e-1,
7.281300e+0,3.48e-1,
7.281400e+0,3.48e-1,
7.281500e+0,3.48e-1,
7.281600e+0,3.48e-1,
7.281700e+0,3.48e-1,
7.281800e+0,3.48e-1,
7.281900e+0,3.48e-1,
7.282000e+0,3.48e-1,
7.282100e+0,3.48e-1,
7.282200e+0,3.48e-1,
7.282300e+0,3.48e-1,
7.282400e+0,3.48e-1,
7.282500e+0,3.48e-1,
7.282600e+0,3.48e-1,
7.282700e+0,3.48e-1,
7.282800e+0,3.48e-1,
7.282900e+0,3.48e-1,
7.283000e+0,3.48e-1,
7.283100e+0,3.48e-1,
7.283200e+0,3.48e-1,
7.283300e+0,3.47e-1,
7.283400e+0,3.47e-1,
7.283500e+0,3.48e-1,
7.283600e+0,3.48e-1,
7.283700e+0,3.47e-1,
7.283800e+0,3.47e-1,
7.283900e+0,3.47e-1,
7.284000e+0,3.47e-1,
7.284100e+0,3.47e-1,
7.284200e+0,3.47e-1,
7.284300e+0,3.47e-1,
7.284400e+0,3.47e-1,
7.284500e+0,3.47e-1,
7.284600e+0,3.47e-1,
7.284700e+0,3.47e-1,
7.284800e+0,3.47e-1,
7.284900e+0,3.46e-1,
7.285000e+0,3.46e-1,
7.285100e+0,3.46e-1,
7.285200e+0,3.46e-1,
7.285300e+0,3.46e-1,
7.285400e+0,3.46e-1,
7.285500e+0,3.47e-1,
7.285600e+0,3.47e-1,
7.285700e+0,3.46e-1,
7.285800e+0,3.46e-1,
7.285900e+0,3.46e-1,
7.286000e+0,3.46e-1,
7.286100e+0,3.46e-1,
7.286200e+0,3.46e-1,
7.286300e+0,3.46e-1,
7.286400e+0,3.46e-1,
7.286500e+0,3.46e-1,
7.286600e+0,3.46e-1,
7.286700e+0,3.47e-1,
7.286800e+0,3.47e-1,
7.286900e+0,3.45e-1,
7.287000e+0,3.45e-1,
7.287100e+0,3.46e-1,
7.287200e+0,3.46e-1,
7.287300e+0,3.46e-1,
7.287400e+0,3.46e-1,
7.287500e+0,3.45e-1,
7.287600e+0,3.45e-1,
7.287700e+0,3.46e-1,
7.287800e+0,3.46e-1,
7.287900e+0,3.45e-1,
7.288000e+0,3.45e-1,
7.288100e+0,3.45e-1,
7.288200e+0,3.45e-1,
7.288300e+0,3.46e-1,
7.288400e+0,3.46e-1,
7.288500e+0,3.45e-1,
7.288600e+0,3.45e-1,
7.288700e+0,3.45e-1,
7.288800e+0,3.45e-1,
7.288900e+0,3.45e-1,
7.289000e+0,3.45e-1,
7.289100e+0,3.45e-1,
7.289200e+0,3.45e-1,
7.289300e+0,3.45e-1,
7.289400e+0,3.45e-1,
7.289500e+0,3.44e-1,
7.289600e+0,3.44e-1,
7.289700e+0,3.44e-1,
7.289800e+0,3.44e-1,
7.289900e+0,3.44e-1,
7.290000e+0,3.44e-1,
7.290100e+0,3.44e-1,
7.290200e+0,3.44e-1,
7.290300e+0,3.44e-1,
7.290400e+0,3.44e-1,
7.290500e+0,3.44e-1,
7.290600e+0,3.44e-1,
7.290700e+0,3.44e-1,
7.290800e+0,3.44e-1,
7.290900e+0,3.44e-1,
7.291000e+0,3.44e-1,
7.291100e+0,3.44e-1,
7.291200e+0,3.44e-1,
7.291300e+0,3.44e-1,
7.291400e+0,3.44e-1,
7.291500e+0,3.44e-1,
7.291600e+0,3.44e-1,
7.291700e+0,3.43e-1,
7.291800e+0,3.43e-1,
7.291900e+0,3.43e-1,
7.292000e+0,3.43e-1,
7.292100e+0,3.43e-1,
7.292200e+0,3.43e-1,
7.292300e+0,3.43e-1,
7.292400e+0,3.43e-1,
7.292500e+0,3.43e-1,
7.292600e+0,3.43e-1,
7.292700e+0,3.43e-1,
7.292800e+0,3.43e-1,
7.292900e+0,3.42e-1,
7.293000e+0,3.42e-1,
7.293100e+0,3.43e-1,
7.293200e+0,3.43e-1,
7.293300e+0,3.42e-1,
7.293400e+0,3.42e-1,
7.293500e+0,3.42e-1,
7.293600e+0,3.42e-1,
7.293700e+0,3.42e-1,
7.293800e+0,3.42e-1,
7.293900e+0,3.42e-1,
7.294000e+0,3.42e-1,
7.294100e+0,3.41e-1,
7.294200e+0,3.41e-1,
7.294300e+0,3.41e-1,
7.294400e+0,3.41e-1,
7.294500e+0,3.41e-1,
7.294600e+0,3.41e-1,
7.294700e+0,3.41e-1,
7.294800e+0,3.41e-1,
7.294900e+0,3.40e-1,
7.295000e+0,3.40e-1,
7.295100e+0,3.41e-1,
7.295200e+0,3.41e-1,
7.295300e+0,3.41e-1,
7.295400e+0,3.41e-1,
7.295500e+0,3.40e-1,
7.295600e+0,3.40e-1,
7.295700e+0,3.40e-1,
7.295800e+0,3.40e-1,
7.295900e+0,3.40e-1,
7.296000e+0,3.40e-1,
7.296100e+0,3.40e-1,
7.296200e+0,3.40e-1,
7.296300e+0,3.40e-1,
7.296400e+0,3.40e-1,
7.296500e+0,3.40e-1,
7.296600e+0,3.40e-1,
7.296700e+0,3.39e-1,
7.296800e+0,3.39e-1,
7.296900e+0,3.39e-1,
7.297000e+0,3.39e-1,
7.297100e+0,3.39e-1,
7.297200e+0,3.39e-1,
7.297300e+0,3.39e-1,
7.297400e+0,3.39e-1,
7.297500e+0,3.39e-1,
7.297600e+0,3.39e-1,
7.297700e+0,3.39e-1,
7.297800e+0,3.39e-1,
7.297900e+0,3.39e-1,
7.298000e+0,3.39e-1,
7.298100e+0,3.38e-1,
7.298200e+0,3.38e-1,
7.298300e+0,3.38e-1,
7.298400e+0,3.38e-1,
7.298500e+0,3.38e-1,
7.298600e+0,3.38e-1,
7.298700e+0,3.38e-1,
7.298800e+0,3.38e-1,
7.298900e+0,3.37e-1,
7.299000e+0,3.37e-1,
7.299100e+0,3.38e-1,
7.299200e+0,3.38e-1,
7.299300e+0,3.37e-1,
7.299400e+0,3.37e-1,
7.299500e+0,3.37e-1,
7.299600e+0,3.37e-1,
7.299700e+0,3.37e-1,
7.299800e+0,3.37e-1,
7.299900e+0,3.36e-1,
7.300000e+0,3.36e-1,
7.300100e+0,3.36e-1,
7.300200e+0,3.36e-1,
7.300300e+0,3.36e-1,
7.300400e+0,3.36e-1,
7.300500e+0,3.36e-1,
7.300600e+0,3.36e-1,
7.300700e+0,3.36e-1,
7.300800e+0,3.36e-1,
7.300900e+0,3.36e-1,
7.301000e+0,3.36e-1,
7.301100e+0,3.35e-1,
7.301200e+0,3.35e-1,
7.301300e+0,3.35e-1,
7.301400e+0,3.35e-1,
7.301500e+0,3.36e-1,
7.301600e+0,3.36e-1,
7.301700e+0,3.36e-1,
7.301800e+0,3.36e-1,
7.301900e+0,3.35e-1,
7.302000e+0,3.35e-1,
7.302100e+0,3.36e-1,
7.302200e+0,3.36e-1,
7.302300e+0,3.36e-1,
7.302400e+0,3.36e-1,
7.302500e+0,3.35e-1,
7.302600e+0,3.35e-1,
7.302700e+0,3.34e-1,
7.302800e+0,3.34e-1,
7.302900e+0,3.34e-1,
7.303000e+0,3.34e-1,
7.303100e+0,3.34e-1,
7.303200e+0,3.34e-1,
7.303300e+0,3.34e-1,
7.303400e+0,3.34e-1,
7.303500e+0,3.34e-1,
7.303600e+0,3.34e-1,
7.303700e+0,3.34e-1,
7.303800e+0,3.34e-1,
7.303900e+0,3.34e-1,
7.304000e+0,3.34e-1,
7.304100e+0,3.34e-1,
7.304200e+0,3.34e-1,
7.304300e+0,3.33e-1,
7.304400e+0,3.33e-1,
7.304500e+0,3.33e-1,
7.304600e+0,3.33e-1,
7.304700e+0,3.33e-1,
7.304800e+0,3.33e-1,
7.304900e+0,3.32e-1,
7.305000e+0,3.32e-1,
7.305100e+0,3.32e-1,
7.305200e+0,3.32e-1,
7.305300e+0,3.32e-1,
7.305400e+0,3.32e-1,
7.305500e+0,3.32e-1,
7.305600e+0,3.32e-1,
7.305700e+0,3.32e-1,
7.305800e+0,3.32e-1,
7.305900e+0,3.32e-1,
7.306000e+0,3.32e-1,
7.306100e+0,3.32e-1,
7.306200e+0,3.32e-1,
7.306300e+0,3.32e-1,
7.306400e+0,3.32e-1,
7.306500e+0,3.32e-1,
7.306600e+0,3.32e-1,
7.306700e+0,3.31e-1,
7.306800e+0,3.31e-1,
7.306900e+0,3.31e-1,
7.307000e+0,3.31e-1,
7.307100e+0,3.31e-1,
7.307200e+0,3.31e-1,
7.307300e+0,3.30e-1,
7.307400e+0,3.30e-1,
7.307500e+0,3.30e-1,
7.307600e+0,3.30e-1,
7.307700e+0,3.31e-1,
7.307800e+0,3.31e-1,
7.307900e+0,3.31e-1,
7.308000e+0,3.31e-1,
7.308100e+0,3.30e-1,
7.308200e+0,3.30e-1,
7.308300e+0,3.29e-1,
7.308400e+0,3.29e-1,
7.308500e+0,3.29e-1,
7.308600e+0,3.29e-1,
7.308700e+0,3.29e-1,
7.308800e+0,3.29e-1,
7.308900e+0,3.28e-1,
7.309000e+0,3.28e-1,
7.309100e+0,3.29e-1,
7.309200e+0,3.29e-1,
7.309300e+0,3.28e-1,
7.309400e+0,3.28e-1,
7.309500e+0,3.28e-1,
7.309600e+0,3.28e-1,
7.309700e+0,3.28e-1,
7.309800e+0,3.28e-1,
7.309900e+0,3.28e-1,
7.310000e+0,3.28e-1,
7.310100e+0,3.28e-1,
7.310200e+0,3.28e-1,
7.310300e+0,3.28e-1,
7.310400e+0,3.28e-1,
7.310500e+0,3.27e-1,
7.310600e+0,3.27e-1,
7.310700e+0,3.27e-1,
7.310800e+0,3.27e-1,
7.310900e+0,3.26e-1,
7.311000e+0,3.26e-1,
7.311100e+0,3.26e-1,
7.311200e+0,3.26e-1,
7.311300e+0,3.26e-1,
7.311400e+0,3.26e-1,
7.311500e+0,3.25e-1,
7.311600e+0,3.25e-1,
7.311700e+0,3.25e-1,
7.311800e+0,3.25e-1,
7.311900e+0,3.24e-1,
7.312000e+0,3.24e-1,
7.312100e+0,3.25e-1,
7.312200e+0,3.25e-1,
7.312300e+0,3.24e-1,
7.312400e+0,3.24e-1,
7.312500e+0,3.24e-1,
7.312600e+0,3.24e-1,
7.312700e+0,3.24e-1,
7.312800e+0,3.24e-1,
7.312900e+0,3.24e-1,
7.313000e+0,3.24e-1,
7.313100e+0,3.24e-1,
7.313200e+0,3.24e-1,
7.313300e+0,3.24e-1,
7.313400e+0,3.24e-1,
7.313500e+0,3.23e-1,
7.313600e+0,3.23e-1,
7.313700e+0,3.23e-1,
7.313800e+0,3.23e-1,
7.313900e+0,3.23e-1,
7.314000e+0,3.23e-1,
7.314100e+0,3.23e-1,
7.314200e+0,3.23e-1,
7.314300e+0,3.22e-1,
7.314400e+0,3.22e-1,
7.314500e+0,3.22e-1,
7.314600e+0,3.22e-1,
7.314700e+0,3.21e-1,
7.314800e+0,3.21e-1,
7.314900e+0,3.21e-1,
7.315000e+0,3.21e-1,
7.315100e+0,3.21e-1,
7.315200e+0,3.21e-1,
7.315300e+0,3.20e-1,
7.315400e+0,3.20e-1,
7.315500e+0,3.20e-1,
7.315600e+0,3.20e-1,
7.315700e+0,3.20e-1,
7.315800e+0,3.20e-1,
7.315900e+0,3.20e-1,
7.316000e+0,3.20e-1,
7.316100e+0,3.20e-1,
7.316200e+0,3.20e-1,
7.316300e+0,3.20e-1,
7.316400e+0,3.20e-1,
7.316500e+0,3.19e-1,
7.316600e+0,3.19e-1,
7.316700e+0,3.19e-1,
7.316800e+0,3.19e-1,
7.316900e+0,3.19e-1,
7.317000e+0,3.19e-1,
7.317100e+0,3.18e-1,
7.317200e+0,3.18e-1,
7.317300e+0,3.18e-1,
7.317400e+0,3.18e-1,
7.317500e+0,3.17e-1,
7.317600e+0,3.17e-1,
7.317700e+0,3.17e-1,
7.317800e+0,3.17e-1,
7.317900e+0,3.17e-1,
7.318000e+0,3.17e-1,
7.318100e+0,3.16e-1,
7.318200e+0,3.16e-1,
7.318300e+0,3.17e-1,
7.318400e+0,3.17e-1,
7.318500e+0,3.16e-1,
7.318600e+0,3.16e-1,
7.318700e+0,3.16e-1,
7.318800e+0,3.16e-1,
7.318900e+0,3.16e-1,
7.319000e+0,3.16e-1,
7.319100e+0,3.16e-1,
7.319200e+0,3.16e-1,
7.319300e+0,3.16e-1,
7.319400e+0,3.16e-1,
7.319500e+0,3.16e-1,
7.319600e+0,3.16e-1,
7.319700e+0,3.16e-1,
7.319800e+0,3.16e-1,
7.319900e+0,3.16e-1,
7.320000e+0,3.16e-1,
7.320100e+0,3.16e-1,
7.320200e+0,3.16e-1,
7.320300e+0,3.14e-1,
7.320400e+0,3.14e-1,
7.320500e+0,3.16e-1,
7.320600e+0,3.16e-1,
7.320700e+0,3.15e-1,
7.320800e+0,3.15e-1,
7.320900e+0,3.15e-1,
7.321000e+0,3.15e-1,
7.321100e+0,3.15e-1,
7.321200e+0,3.15e-1,
7.321300e+0,3.14e-1,
7.321400e+0,3.14e-1,
7.321500e+0,3.14e-1,
7.321600e+0,3.14e-1,
7.321700e+0,3.14e-1,
7.321800e+0,3.14e-1,
7.321900e+0,3.13e-1,
7.322000e+0,3.13e-1,
7.322100e+0,3.12e-1,
7.322200e+0,3.12e-1,
7.322300e+0,3.13e-1,
7.322400e+0,3.13e-1,
7.322500e+0,3.13e-1,
7.322600e+0,3.13e-1,
7.322700e+0,3.12e-1,
7.322800e+0,3.12e-1,
7.322900e+0,3.12e-1,
7.323000e+0,3.12e-1,
7.323100e+0,3.12e-1,
7.323200e+0,3.12e-1,
7.323300e+0,3.12e-1,
7.323400e+0,3.12e-1,
7.323500e+0,3.12e-1,
7.323600e+0,3.12e-1,
7.323700e+0,3.10e-1,
7.323800e+0,3.10e-1,
7.323900e+0,3.10e-1,
7.324000e+0,3.10e-1,
7.324100e+0,3.10e-1,
7.324200e+0,3.10e-1,
7.324300e+0,3.10e-1,
7.324400e+0,3.10e-1,
7.324500e+0,3.09e-1,
7.324600e+0,3.09e-1,
7.324700e+0,3.09e-1,
7.324800e+0,3.09e-1,
7.324900e+0,3.09e-1,
7.325000e+0,3.09e-1,
7.325100e+0,3.08e-1,
7.325200e+0,3.08e-1,
7.325300e+0,3.08e-1,
7.325400e+0,3.08e-1,
7.325500e+0,3.08e-1,
7.325600e+0,3.08e-1,
7.325700e+0,3.08e-1,
7.325800e+0,3.08e-1,
7.325900e+0,3.07e-1,
7.326000e+0,3.07e-1,
7.326100e+0,3.07e-1,
7.326200e+0,3.07e-1,
7.326300e+0,3.07e-1,
7.326400e+0,3.07e-1,
7.326500e+0,3.06e-1,
7.326600e+0,3.06e-1,
7.326700e+0,3.07e-1,
7.326800e+0,3.07e-1,
7.326900e+0,3.06e-1,
7.327000e+0,3.06e-1,
7.327100e+0,3.05e-1,
7.327200e+0,3.05e-1,
7.327300e+0,3.05e-1,
7.327400e+0,3.05e-1,
7.327500e+0,3.05e-1,
7.327600e+0,3.05e-1,
7.327700e+0,3.04e-1,
7.327800e+0,3.04e-1,
7.327900e+0,3.04e-1,
7.328000e+0,3.04e-1,
7.328100e+0,3.04e-1,
7.328200e+0,3.04e-1,
7.328300e+0,3.03e-1,
7.328400e+0,3.03e-1,
7.328500e+0,3.03e-1,
7.328600e+0,3.03e-1,
7.328700e+0,3.02e-1,
7.328800e+0,3.02e-1,
7.328900e+0,3.01e-1,
7.329000e+0,3.01e-1,
7.329100e+0,3.01e-1,
7.329200e+0,3.01e-1,
7.329300e+0,3.01e-1,
7.329400e+0,3.01e-1,
7.329500e+0,3.00e-1,
7.329600e+0,3.00e-1,
7.329700e+0,3.00e-1,
7.329800e+0,3.00e-1,
7.329900e+0,3.00e-1,
7.330000e+0,3.00e-1,
7.330100e+0,3.00e-1,
7.330200e+0,3.00e-1,
7.330300e+0,3.00e-1,
7.330400e+0,3.00e-1,
7.330500e+0,2.99e-1,
7.330600e+0,2.99e-1,
7.330700e+0,3.00e-1,
7.330800e+0,3.00e-1,
7.330900e+0,2.99e-1,
7.331000e+0,2.99e-1,
7.331100e+0,3.00e-1,
7.331200e+0,3.00e-1,
7.331300e+0,2.98e-1,
7.331400e+0,2.98e-1,
7.331500e+0,2.97e-1,
7.331600e+0,2.97e-1,
7.331700e+0,2.97e-1,
7.331800e+0,2.97e-1,
7.331900e+0,2.97e-1,
7.332000e+0,2.97e-1,
7.332100e+0,2.96e-1,
7.332200e+0,2.96e-1,
7.332300e+0,2.96e-1,
7.332400e+0,2.96e-1,
7.332500e+0,2.96e-1,
7.332600e+0,2.96e-1,
7.332700e+0,2.96e-1,
7.332800e+0,2.96e-1,
7.332900e+0,2.96e-1,
7.333000e+0,2.96e-1,
7.333100e+0,2.94e-1,
7.333200e+0,2.94e-1,
7.333300e+0,2.95e-1,
7.333400e+0,2.95e-1,
7.333500e+0,2.94e-1,
7.333600e+0,2.94e-1,
7.333700e+0,2.93e-1,
7.333800e+0,2.93e-1,
7.333900e+0,2.93e-1,
7.334000e+0,2.93e-1,
7.334100e+0,2.93e-1,
7.334200e+0,2.93e-1,
7.334300e+0,2.92e-1,
7.334400e+0,2.92e-1,
7.334500e+0,2.92e-1,
7.334600e+0,2.92e-1,
7.334700e+0,2.92e-1,
7.334800e+0,2.92e-1,
7.334900e+0,2.92e-1,
7.335000e+0,2.92e-1,
7.335100e+0,2.92e-1,
7.335200e+0,2.92e-1,
7.335300e+0,2.91e-1,
7.335400e+0,2.91e-1,
7.335500e+0,2.91e-1,
7.335600e+0,2.91e-1,
7.335700e+0,2.92e-1,
7.335800e+0,2.92e-1,
7.335900e+0,2.91e-1,
7.336000e+0,2.91e-1,
7.336100e+0,2.91e-1,
7.336200e+0,2.91e-1,
7.336300e+0,2.91e-1,
7.336400e+0,2.91e-1,
7.336500e+0,2.90e-1,
7.336600e+0,2.90e-1,
7.336700e+0,2.91e-1,
7.336800e+0,2.91e-1,
7.336900e+0,2.90e-1,
7.337000e+0,2.90e-1,
7.337100e+0,2.90e-1,
7.337200e+0,2.90e-1,
7.337300e+0,2.89e-1,
7.337400e+0,2.89e-1,
7.337500e+0,2.89e-1,
7.337600e+0,2.89e-1,
7.337700e+0,2.89e-1,
7.337800e+0,2.89e-1,
7.337900e+0,2.88e-1,
7.338000e+0,2.88e-1,
7.338100e+0,2.88e-1,
7.338200e+0,2.88e-1,
7.338300e+0,2.88e-1,
7.338400e+0,2.88e-1,
7.338500e+0,2.88e-1,
7.338600e+0,2.88e-1,
7.338700e+0,2.87e-1,
7.338800e+0,2.87e-1,
7.338900e+0,2.87e-1,
7.339000e+0,2.87e-1,
7.339100e+0,2.87e-1,
7.339200e+0,2.87e-1,
7.339300e+0,2.86e-1,
7.339400e+0,2.86e-1,
7.339500e+0,2.86e-1,
7.339600e+0,2.86e-1,
7.339700e+0,2.86e-1,
7.339800e+0,2.86e-1,
7.339900e+0,2.86e-1,
7.340000e+0,2.86e-1,
7.340100e+0,2.86e-1,
7.340200e+0,2.86e-1,
7.340300e+0,2.85e-1,
7.340400e+0,2.85e-1,
7.340500e+0,2.84e-1,
7.340600e+0,2.84e-1,
7.340700e+0,2.84e-1,
7.340800e+0,2.84e-1,
7.340900e+0,2.84e-1,
7.341000e+0,2.84e-1,
7.341100e+0,2.84e-1,
7.341200e+0,2.84e-1,
7.341300e+0,2.84e-1,
7.341400e+0,2.84e-1,
7.341500e+0,2.84e-1,
7.341600e+0,2.84e-1,
7.341700e+0,2.83e-1,
7.341800e+0,2.83e-1,
7.341900e+0,2.83e-1,
7.342000e+0,2.83e-1,
7.342100e+0,2.82e-1,
7.342200e+0,2.82e-1,
7.342300e+0,2.82e-1,
7.342400e+0,2.82e-1,
7.342500e+0,2.81e-1,
7.342600e+0,2.81e-1,
7.342700e+0,2.81e-1,
7.342800e+0,2.81e-1,
7.342900e+0,2.81e-1,
7.343000e+0,2.81e-1,
7.343100e+0,2.80e-1,
7.343200e+0,2.80e-1,
7.343300e+0,2.80e-1,
7.343400e+0,2.80e-1,
7.343500e+0,2.80e-1,
7.343600e+0,2.80e-1,
7.343700e+0,2.80e-1,
7.343800e+0,2.80e-1,
7.343900e+0,2.79e-1,
7.344000e+0,2.79e-1,
7.344100e+0,2.79e-1,
7.344200e+0,2.79e-1,
7.344300e+0,2.78e-1,
7.344400e+0,2.78e-1,
7.344500e+0,2.77e-1,
7.344600e+0,2.77e-1,
7.344700e+0,2.76e-1,
7.344800e+0,2.76e-1,
7.344900e+0,2.77e-1,
7.345000e+0,2.77e-1,
7.345100e+0,2.76e-1,
7.345200e+0,2.76e-1,
7.345300e+0,2.76e-1,
7.345400e+0,2.76e-1,
7.345500e+0,2.76e-1,
7.345600e+0,2.76e-1,
7.345700e+0,2.76e-1,
7.345800e+0,2.76e-1,
7.345900e+0,2.76e-1,
7.346000e+0,2.76e-1,
7.346100e+0,2.75e-1,
7.346200e+0,2.75e-1,
7.346300e+0,2.74e-1,
7.346400e+0,2.74e-1,
7.346500e+0,2.75e-1,
7.346600e+0,2.75e-1,
7.346700e+0,2.74e-1,
7.346800e+0,2.74e-1,
7.346900e+0,2.73e-1,
7.347000e+0,2.73e-1,
7.347100e+0,2.73e-1,
7.347200e+0,2.73e-1,
7.347300e+0,2.72e-1,
7.347400e+0,2.72e-1,
7.347500e+0,2.72e-1,
7.347600e+0,2.72e-1,
7.347700e+0,2.72e-1,
7.347800e+0,2.72e-1,
7.347900e+0,2.72e-1,
7.348000e+0,2.72e-1,
7.348100e+0,2.72e-1,
7.348200e+0,2.72e-1,
7.348300e+0,2.71e-1,
7.348400e+0,2.71e-1,
7.348500e+0,2.71e-1,
7.348600e+0,2.71e-1,
7.348700e+0,2.71e-1,
7.348800e+0,2.71e-1,
7.348900e+0,2.71e-1,
7.349000e+0,2.71e-1,
7.349100e+0,2.70e-1,
7.349200e+0,2.70e-1,
7.349300e+0,2.68e-1,
7.349400e+0,2.68e-1,
7.349500e+0,2.68e-1,
7.349600e+0,2.68e-1,
7.349700e+0,2.69e-1,
7.349800e+0,2.69e-1,
7.349900e+0,2.68e-1,
7.350000e+0,2.68e-1,
7.350100e+0,2.68e-1,
7.350200e+0,2.68e-1,
7.350300e+0,2.68e-1,
7.350400e+0,2.68e-1,
7.350500e+0,2.68e-1,
7.350600e+0,2.68e-1,
7.350700e+0,2.67e-1,
7.350800e+0,2.67e-1,
7.350900e+0,2.67e-1,
7.351000e+0,2.67e-1,
7.351100e+0,2.66e-1,
7.351200e+0,2.66e-1,
7.351300e+0,2.66e-1,
7.351400e+0,2.66e-1,
7.351500e+0,2.66e-1,
7.351600e+0,2.66e-1,
7.351700e+0,2.66e-1,
7.351800e+0,2.66e-1,
7.351900e+0,2.65e-1,
7.352000e+0,2.65e-1,
7.352100e+0,2.65e-1,
7.352200e+0,2.65e-1,
7.352300e+0,2.64e-1,
7.352400e+0,2.64e-1,
7.352500e+0,2.64e-1,
7.352600e+0,2.64e-1,
7.352700e+0,2.64e-1,
7.352800e+0,2.64e-1,
7.352900e+0,2.64e-1,
7.353000e+0,2.64e-1,
7.353100e+0,2.64e-1,
7.353200e+0,2.64e-1,
7.353300e+0,2.64e-1,
7.353400e+0,2.64e-1,
7.353500e+0,2.64e-1,
7.353600e+0,2.64e-1,
7.353700e+0,2.64e-1,
7.353800e+0,2.64e-1,
7.353900e+0,2.63e-1,
7.354000e+0,2.63e-1,
7.354100e+0,2.63e-1,
7.354200e+0,2.63e-1,
7.354300e+0,2.63e-1,
7.354400e+0,2.63e-1,
7.354500e+0,2.63e-1,
7.354600e+0,2.63e-1,
7.354700e+0,2.63e-1,
7.354800e+0,2.63e-1,
7.354900e+0,2.62e-1,
7.355000e+0,2.62e-1,
7.355100e+0,2.61e-1,
7.355200e+0,2.61e-1,
7.355300e+0,2.60e-1,
7.355400e+0,2.60e-1,
7.355500e+0,2.60e-1,
7.355600e+0,2.60e-1,
7.355700e+0,2.60e-1,
7.355800e+0,2.60e-1,
7.355900e+0,2.61e-1,
7.356000e+0,2.61e-1,
7.356100e+0,2.60e-1,
7.356200e+0,2.60e-1,
7.356300e+0,2.60e-1,
7.356400e+0,2.60e-1,
7.356500e+0,2.60e-1,
7.356600e+0,2.60e-1,
7.356700e+0,2.60e-1,
7.356800e+0,2.60e-1,
7.356900e+0,2.60e-1,
7.357000e+0,2.60e-1,
7.357100e+0,2.59e-1,
7.357200e+0,2.59e-1,
7.357300e+0,2.58e-1,
7.357400e+0,2.58e-1,
7.357500e+0,2.59e-1,
7.357600e+0,2.59e-1,
7.357700e+0,2.58e-1,
7.357800e+0,2.58e-1,
7.357900e+0,2.57e-1,
7.358000e+0,2.57e-1,
7.358100e+0,2.58e-1,
7.358200e+0,2.58e-1,
7.358300e+0,2.58e-1,
7.358400e+0,2.58e-1,
7.358500e+0,2.57e-1,
7.358600e+0,2.57e-1,
7.358700e+0,2.56e-1,
7.358800e+0,2.56e-1,
7.358900e+0,2.56e-1,
7.359000e+0,2.56e-1,
7.359100e+0,2.56e-1,
7.359200e+0,2.56e-1,
7.359300e+0,2.56e-1,
7.359400e+0,2.56e-1,
7.359500e+0,2.56e-1,
7.359600e+0,2.56e-1,
7.359700e+0,2.55e-1,
7.359800e+0,2.55e-1,
7.359900e+0,2.54e-1,
7.360000e+0,2.54e-1,
7.360100e+0,2.55e-1,
7.360200e+0,2.55e-1,
7.360300e+0,2.55e-1,
7.360400e+0,2.55e-1,
7.360500e+0,2.55e-1,
7.360600e+0,2.55e-1,
7.360700e+0,2.53e-1,
7.360800e+0,2.53e-1,
7.360900e+0,2.53e-1,
7.361000e+0,2.53e-1,
7.361100e+0,2.53e-1,
7.361200e+0,2.53e-1,
7.361300e+0,2.52e-1,
7.361400e+0,2.52e-1,
7.361500e+0,2.52e-1,
7.361600e+0,2.52e-1,
7.361700e+0,2.53e-1,
7.361800e+0,2.53e-1,
7.361900e+0,2.52e-1,
7.362000e+0,2.52e-1,
7.362100e+0,2.52e-1,
7.362200e+0,2.52e-1,
7.362300e+0,2.52e-1,
7.362400e+0,2.52e-1,
7.362500e+0,2.51e-1,
7.362600e+0,2.51e-1,
7.362700e+0,2.52e-1,
7.362800e+0,2.52e-1,
7.362900e+0,2.51e-1,
7.363000e+0,2.51e-1,
7.363100e+0,2.50e-1,
7.363200e+0,2.50e-1,
7.363300e+0,2.50e-1,
7.363400e+0,2.50e-1,
7.363500e+0,2.50e-1,
7.363600e+0,2.50e-1,
7.363700e+0,2.49e-1,
7.363800e+0,2.49e-1,
7.363900e+0,2.50e-1,
7.364000e+0,2.50e-1,
7.364100e+0,2.49e-1,
7.364200e+0,2.49e-1,
7.364300e+0,2.49e-1,
7.364400e+0,2.49e-1,
7.364500e+0,2.48e-1,
7.364600e+0,2.48e-1,
7.364700e+0,2.48e-1,
7.364800e+0,2.48e-1,
7.364900e+0,2.48e-1,
7.365000e+0,2.48e-1,
7.365100e+0,2.48e-1,
7.365200e+0,2.48e-1,
7.365300e+0,2.48e-1,
7.365400e+0,2.48e-1,
7.365500e+0,2.47e-1,
7.365600e+0,2.47e-1,
7.365700e+0,2.48e-1,
7.365800e+0,2.48e-1,
7.365900e+0,2.47e-1,
7.366000e+0,2.47e-1,
7.366100e+0,2.47e-1,
7.366200e+0,2.47e-1,
7.366300e+0,2.47e-1,
7.366400e+0,2.47e-1,
7.366500e+0,2.46e-1,
7.366600e+0,2.46e-1,
7.366700e+0,2.46e-1,
7.366800e+0,2.46e-1,
7.366900e+0,2.46e-1,
7.367000e+0,2.46e-1,
7.367100e+0,2.46e-1,
7.367200e+0,2.46e-1,
7.367300e+0,2.45e-1,
7.367400e+0,2.45e-1,
7.367500e+0,2.45e-1,
7.367600e+0,2.45e-1,
7.367700e+0,2.44e-1,
7.367800e+0,2.44e-1,
7.367900e+0,2.45e-1,
7.368000e+0,2.45e-1,
7.368100e+0,2.45e-1,
7.368200e+0,2.45e-1,
7.368300e+0,2.44e-1,
7.368400e+0,2.44e-1,
7.368500e+0,2.44e-1,
7.368600e+0,2.44e-1,
7.368700e+0,2.44e-1,
7.368800e+0,2.44e-1,
7.368900e+0,2.44e-1,
7.369000e+0,2.44e-1,
7.369100e+0,2.44e-1,
7.369200e+0,2.44e-1,
7.369300e+0,2.44e-1,
7.369400e+0,2.44e-1,
7.369500e+0,2.44e-1,
7.369600e+0,2.44e-1,
7.369700e+0,2.44e-1,
7.369800e+0,2.44e-1,
7.369900e+0,2.44e-1,
7.370000e+0,2.44e-1,
7.370100e+0,2.43e-1,
7.370200e+0,2.43e-1,
7.370300e+0,2.43e-1,
7.370400e+0,2.43e-1,
7.370500e+0,2.44e-1,
7.370600e+0,2.44e-1,
7.370700e+0,2.43e-1,
7.370800e+0,2.43e-1,
7.370900e+0,2.43e-1,
7.371000e+0,2.43e-1,
7.371100e+0,2.42e-1,
7.371200e+0,2.42e-1,
7.371300e+0,2.42e-1,
7.371400e+0,2.42e-1,
7.371500e+0,2.43e-1,
7.371600e+0,2.43e-1,
7.371700e+0,2.42e-1,
7.371800e+0,2.42e-1,
7.371900e+0,2.42e-1,
7.372000e+0,2.42e-1,
7.372100e+0,2.41e-1,
7.372200e+0,2.41e-1,
7.372300e+0,2.41e-1,
7.372400e+0,2.41e-1,
7.372500e+0,2.40e-1,
7.372600e+0,2.40e-1,
7.372700e+0,2.41e-1,
7.372800e+0,2.41e-1,
7.372900e+0,2.41e-1,
7.373000e+0,2.41e-1,
7.373100e+0,2.41e-1,
7.373200e+0,2.41e-1,
7.373300e+0,2.40e-1,
7.373400e+0,2.40e-1,
7.373500e+0,2.40e-1,
7.373600e+0,2.40e-1,
7.373700e+0,2.40e-1,
7.373800e+0,2.40e-1,
7.373900e+0,2.40e-1,
7.374000e+0,2.40e-1,
7.374100e+0,2.40e-1,
7.374200e+0,2.40e-1,
7.374300e+0,2.39e-1,
7.374400e+0,2.39e-1,
7.374500e+0,2.40e-1,
7.374600e+0,2.40e-1,
7.374700e+0,2.39e-1,
7.374800e+0,2.39e-1,
7.374900e+0,2.39e-1,
7.375000e+0,2.39e-1,
7.375100e+0,2.39e-1,
7.375200e+0,2.39e-1,
7.375300e+0,2.39e-1,
7.375400e+0,2.39e-1,
7.375500e+0,2.39e-1,
7.375600e+0,2.39e-1,
7.375700e+0,2.39e-1,
7.375800e+0,2.39e-1,
7.375900e+0,2.38e-1,
7.376000e+0,2.38e-1,
7.376100e+0,2.39e-1,
7.376200e+0,2.39e-1,
7.376300e+0,2.38e-1,
7.376400e+0,2.38e-1,
7.376500e+0,2.39e-1,
7.376600e+0,2.39e-1,
7.376700e+0,2.38e-1,
7.376800e+0,2.38e-1,
7.376900e+0,2.37e-1,
7.377000e+0,2.37e-1,
7.377100e+0,2.38e-1,
7.377200e+0,2.38e-1,
7.377300e+0,2.38e-1,
7.377400e+0,2.38e-1,
7.377500e+0,2.37e-1,
7.377600e+0,2.37e-1,
7.377700e+0,2.36e-1,
7.377800e+0,2.36e-1,
7.377900e+0,2.37e-1,
7.378000e+0,2.37e-1,
7.378100e+0,2.36e-1,
7.378200e+0,2.36e-1,
7.378300e+0,2.36e-1,
7.378400e+0,2.36e-1,
7.378500e+0,2.36e-1,
7.378600e+0,2.36e-1,
7.378700e+0,2.36e-1,
7.378800e+0,2.36e-1,
7.378900e+0,2.36e-1,
7.379000e+0,2.36e-1,
7.379100e+0,2.36e-1,
7.379200e+0,2.36e-1,
7.379300e+0,2.36e-1,
7.379400e+0,2.36e-1,
7.379500e+0,2.36e-1,
7.379600e+0,2.36e-1,
7.379700e+0,2.36e-1,
7.379800e+0,2.36e-1,
7.379900e+0,2.36e-1,
7.380000e+0,2.36e-1,
7.380100e+0,2.36e-1,
7.380200e+0,2.36e-1,
7.380300e+0,2.35e-1,
7.380400e+0,2.35e-1,
7.380500e+0,2.35e-1,
7.380600e+0,2.35e-1,
7.380700e+0,2.36e-1,
7.380800e+0,2.36e-1,
7.380900e+0,2.35e-1,
7.381000e+0,2.35e-1,
7.381100e+0,2.36e-1,
7.381200e+0,2.36e-1,
7.381300e+0,2.35e-1,
7.381400e+0,2.35e-1,
7.381500e+0,2.35e-1,
7.381600e+0,2.35e-1,
7.381700e+0,2.35e-1,
7.381800e+0,2.35e-1,
7.381900e+0,2.34e-1,
7.382000e+0,2.34e-1,
7.382100e+0,2.34e-1,
7.382200e+0,2.34e-1,
7.382300e+0,2.34e-1,
7.382400e+0,2.34e-1,
7.382500e+0,2.35e-1,
7.382600e+0,2.35e-1,
7.382700e+0,2.34e-1,
7.382800e+0,2.34e-1,
7.382900e+0,2.34e-1,
7.383000e+0,2.34e-1,
7.383100e+0,2.34e-1,
7.383200e+0,2.34e-1,
7.383300e+0,2.34e-1,
7.383400e+0,2.34e-1,
7.383500e+0,2.33e-1,
7.383600e+0,2.33e-1,
7.383700e+0,2.33e-1,
7.383800e+0,2.33e-1,
7.383900e+0,2.33e-1,
7.384000e+0,2.33e-1,
7.384100e+0,2.34e-1,
7.384200e+0,2.34e-1,
7.384300e+0,2.33e-1,
7.384400e+0,2.33e-1,
7.384500e+0,2.33e-1,
7.384600e+0,2.33e-1,
7.384700e+0,2.33e-1,
7.384800e+0,2.33e-1,
7.384900e+0,2.33e-1,
7.385000e+0,2.33e-1,
7.385100e+0,2.34e-1,
7.385200e+0,2.34e-1,
7.385300e+0,2.34e-1,
7.385400e+0,2.34e-1,
7.385500e+0,2.33e-1,
7.385600e+0,2.33e-1,
7.385700e+0,2.34e-1,
7.385800e+0,2.34e-1,
7.385900e+0,2.33e-1,
7.386000e+0,2.33e-1,
7.386100e+0,2.33e-1,
7.386200e+0,2.33e-1,
7.386300e+0,2.33e-1,
7.386400e+0,2.33e-1,
7.386500e+0,2.33e-1,
7.386600e+0,2.33e-1,
7.386700e+0,2.33e-1,
7.386800e+0,2.33e-1,
7.386900e+0,2.33e-1,
7.387000e+0,2.33e-1,
7.387100e+0,2.33e-1,
7.387200e+0,2.33e-1,
7.387300e+0,2.33e-1,
7.387400e+0,2.33e-1,
7.387500e+0,2.33e-1,
7.387600e+0,2.33e-1,
7.387700e+0,2.33e-1,
7.387800e+0,2.33e-1,
7.387900e+0,2.32e-1,
7.388000e+0,2.32e-1,
7.388100e+0,2.33e-1,
7.388200e+0,2.33e-1,
7.388300e+0,2.33e-1,
7.388400e+0,2.33e-1,
7.388500e+0,2.33e-1,
7.388600e+0,2.33e-1,
7.388700e+0,2.33e-1,
7.388800e+0,2.33e-1,
7.388900e+0,2.32e-1,
7.389000e+0,2.32e-1,
7.389100e+0,2.32e-1,
7.389200e+0,2.32e-1,
7.389300e+0,2.33e-1,
7.389400e+0,2.33e-1,
7.389500e+0,2.32e-1,
7.389600e+0,2.32e-1,
7.389700e+0,2.32e-1,
7.389800e+0,2.32e-1,
7.389900e+0,2.33e-1,
7.390000e+0,2.33e-1,
7.390100e+0,2.32e-1,
7.390200e+0,2.32e-1,
7.390300e+0,2.32e-1,
7.390400e+0,2.32e-1,
7.390500e+0,2.33e-1,
7.390600e+0,2.33e-1,
7.390700e+0,2.32e-1,
7.390800e+0,2.32e-1,
7.390900e+0,2.33e-1,
7.391000e+0,2.33e-1,
7.391100e+0,2.33e-1,
7.391200e+0,2.33e-1,
7.391300e+0,2.33e-1,
7.391400e+0,2.33e-1,
7.391500e+0,2.33e-1,
7.391600e+0,2.33e-1,
7.391700e+0,2.32e-1,
7.391800e+0,2.32e-1,
7.391900e+0,2.33e-1,
7.392000e+0,2.33e-1,
7.392100e+0,2.32e-1,
7.392200e+0,2.32e-1,
7.392300e+0,2.33e-1,
7.392400e+0,2.33e-1,
7.392500e+0,2.32e-1,
7.392600e+0,2.32e-1,
7.392700e+0,2.33e-1,
7.392800e+0,2.33e-1,
7.392900e+0,2.33e-1,
7.393000e+0,2.33e-1,
7.393100e+0,2.32e-1,
7.393200e+0,2.32e-1,
7.393300e+0,2.32e-1,
7.393400e+0,2.32e-1,
7.393500e+0,2.32e-1,
7.393600e+0,2.32e-1,
7.393700e+0,2.33e-1,
7.393800e+0,2.33e-1,
7.393900e+0,2.33e-1,
7.394000e+0,2.33e-1,
7.394100e+0,2.33e-1,
7.394200e+0,2.33e-1,
7.394300e+0,2.33e-1,
7.394400e+0,2.33e-1,
7.394500e+0,2.33e-1,
7.394600e+0,2.33e-1,
7.394700e+0,2.33e-1,
7.394800e+0,2.33e-1,
7.394900e+0,2.33e-1,
7.395000e+0,2.33e-1,
7.395100e+0,2.33e-1,
7.395200e+0,2.33e-1,
7.395300e+0,2.33e-1,
7.395400e+0,2.33e-1,
7.395500e+0,2.33e-1,
7.395600e+0,2.33e-1,
7.395700e+0,2.33e-1,
7.395800e+0,2.33e-1,
7.395900e+0,2.33e-1,
7.396000e+0,2.33e-1,
7.396100e+0,2.33e-1,
7.396200e+0,2.33e-1,
7.396300e+0,2.33e-1,
7.396400e+0,2.33e-1,
7.396500e+0,2.33e-1,
7.396600e+0,2.33e-1,
7.396700e+0,2.33e-1,
7.396800e+0,2.33e-1,
7.396900e+0,2.33e-1,
7.397000e+0,2.33e-1,
7.397100e+0,2.34e-1,
7.397200e+0,2.34e-1,
7.397300e+0,2.33e-1,
7.397400e+0,2.33e-1,
7.397500e+0,2.33e-1,
7.397600e+0,2.33e-1,
7.397700e+0,2.34e-1,
7.397800e+0,2.34e-1,
7.397900e+0,2.34e-1,
7.398000e+0,2.34e-1,
7.398100e+0,2.34e-1,
7.398200e+0,2.34e-1,
7.398300e+0,2.35e-1,
7.398400e+0,2.35e-1,
7.398500e+0,2.34e-1,
7.398600e+0,2.34e-1,
7.398700e+0,2.34e-1,
7.398800e+0,2.34e-1,
7.398900e+0,2.34e-1,
7.399000e+0,2.34e-1,
7.399100e+0,2.36e-1,
7.399200e+0,2.36e-1,
7.399300e+0,2.35e-1,
7.399400e+0,2.35e-1,
7.399500e+0,2.35e-1,
7.399600e+0,2.35e-1,
7.399700e+0,2.35e-1,
7.399800e+0,2.35e-1,
7.399900e+0,2.35e-1,
7.400000e+0,2.35e-1,
7.400100e+0,2.36e-1,
7.400200e+0,2.36e-1,
7.400300e+0,2.35e-1,
7.400400e+0,2.35e-1,
7.400500e+0,2.36e-1,
7.400600e+0,2.36e-1,
7.400700e+0,2.36e-1,
7.400800e+0,2.36e-1,
7.400900e+0,2.36e-1,
7.401000e+0,2.36e-1,
7.401100e+0,2.36e-1,
7.401200e+0,2.36e-1,
7.401300e+0,2.36e-1,
7.401400e+0,2.36e-1,
7.401500e+0,2.36e-1,
7.401600e+0,2.36e-1,
7.401700e+0,2.36e-1,
7.401800e+0,2.36e-1,
7.401900e+0,2.36e-1,
7.402000e+0,2.36e-1,
7.402100e+0,2.36e-1,
7.402200e+0,2.36e-1,
7.402300e+0,2.36e-1,
7.402400e+0,2.36e-1,
7.402500e+0,2.36e-1,
7.402600e+0,2.36e-1,
7.402700e+0,2.36e-1,
7.402800e+0,2.36e-1,
7.402900e+0,2.36e-1,
7.403000e+0,2.36e-1,
7.403100e+0,2.36e-1,
7.403200e+0,2.36e-1,
7.403300e+0,2.36e-1,
7.403400e+0,2.36e-1,
7.403500e+0,2.36e-1,
7.403600e+0,2.36e-1,
7.403700e+0,2.36e-1,
7.403800e+0,2.36e-1,
7.403900e+0,2.36e-1,
7.404000e+0,2.36e-1,
7.404100e+0,2.36e-1,
7.404200e+0,2.36e-1,
7.404300e+0,2.37e-1,
7.404400e+0,2.37e-1,
7.404500e+0,2.37e-1,
7.404600e+0,2.37e-1,
7.404700e+0,2.37e-1,
7.404800e+0,2.37e-1,
7.404900e+0,2.37e-1,
7.405000e+0,2.37e-1,
7.405100e+0,2.38e-1,
7.405200e+0,2.38e-1,
7.405300e+0,2.37e-1,
7.405400e+0,2.37e-1,
7.405500e+0,2.38e-1,
7.405600e+0,2.38e-1,
7.405700e+0,2.38e-1,
7.405800e+0,2.38e-1,
7.405900e+0,2.38e-1,
7.406000e+0,2.38e-1,
7.406100e+0,2.38e-1,
7.406200e+0,2.38e-1,
7.406300e+0,2.38e-1,
7.406400e+0,2.38e-1,
7.406500e+0,2.38e-1,
7.406600e+0,2.38e-1,
7.406700e+0,2.39e-1,
7.406800e+0,2.39e-1,
7.406900e+0,2.39e-1,
7.407000e+0,2.39e-1,
7.407100e+0,2.39e-1,
7.407200e+0,2.39e-1,
7.407300e+0,2.39e-1,
7.407400e+0,2.39e-1,
7.407500e+0,2.39e-1,
7.407600e+0,2.39e-1,
7.407700e+0,2.40e-1,
7.407800e+0,2.40e-1,
7.407900e+0,2.40e-1,
7.408000e+0,2.40e-1,
7.408100e+0,2.40e-1,
7.408200e+0,2.40e-1,
7.408300e+0,2.40e-1,
7.408400e+0,2.40e-1,
7.408500e+0,2.40e-1,
7.408600e+0,2.40e-1,
7.408700e+0,2.40e-1,
7.408800e+0,2.40e-1,
7.408900e+0,2.40e-1,
7.409000e+0,2.40e-1,
7.409100e+0,2.40e-1,
7.409200e+0,2.40e-1,
7.409300e+0,2.40e-1,
7.409400e+0,2.40e-1,
7.409500e+0,2.40e-1,
7.409600e+0,2.40e-1,
7.409700e+0,2.41e-1,
7.409800e+0,2.41e-1,
7.409900e+0,2.41e-1,
7.410000e+0,2.41e-1,
7.410100e+0,2.41e-1,
7.410200e+0,2.41e-1,
7.410300e+0,2.41e-1,
7.410400e+0,2.41e-1,
7.410500e+0,2.42e-1,
7.410600e+0,2.42e-1,
7.410700e+0,2.41e-1,
7.410800e+0,2.41e-1,
7.410900e+0,2.42e-1,
7.411000e+0,2.42e-1,
7.411100e+0,2.42e-1,
7.411200e+0,2.42e-1,
7.411300e+0,2.43e-1,
7.411400e+0,2.43e-1,
7.411500e+0,2.43e-1,
7.411600e+0,2.43e-1,
7.411700e+0,2.43e-1,
7.411800e+0,2.43e-1,
7.411900e+0,2.43e-1,
7.412000e+0,2.43e-1,
7.412100e+0,2.44e-1,
7.412200e+0,2.44e-1,
7.412300e+0,2.43e-1,
7.412400e+0,2.43e-1,
7.412500e+0,2.44e-1,
7.412600e+0,2.44e-1,
7.412700e+0,2.44e-1,
7.412800e+0,2.44e-1,
7.412900e+0,2.44e-1,
7.413000e+0,2.44e-1,
7.413100e+0,2.44e-1,
7.413200e+0,2.44e-1,
7.413300e+0,2.44e-1,
7.413400e+0,2.44e-1,
7.413500e+0,2.44e-1,
7.413600e+0,2.44e-1,
7.413700e+0,2.44e-1,
7.413800e+0,2.44e-1,
7.413900e+0,2.44e-1,
7.414000e+0,2.44e-1,
7.414100e+0,2.45e-1,
7.414200e+0,2.45e-1,
7.414300e+0,2.45e-1,
7.414400e+0,2.45e-1,
7.414500e+0,2.45e-1,
7.414600e+0,2.45e-1,
7.414700e+0,2.46e-1,
7.414800e+0,2.46e-1,
7.414900e+0,2.46e-1,
7.415000e+0,2.46e-1,
7.415100e+0,2.47e-1,
7.415200e+0,2.47e-1,
7.415300e+0,2.46e-1,
7.415400e+0,2.46e-1,
7.415500e+0,2.47e-1,
7.415600e+0,2.47e-1,
7.415700e+0,2.48e-1,
7.415800e+0,2.48e-1,
7.415900e+0,2.48e-1,
7.416000e+0,2.48e-1,
7.416100e+0,2.48e-1,
7.416200e+0,2.48e-1,
7.416300e+0,2.48e-1,
7.416400e+0,2.48e-1,
7.416500e+0,2.49e-1,
7.416600e+0,2.49e-1,
7.416700e+0,2.48e-1,
7.416800e+0,2.48e-1,
7.416900e+0,2.49e-1,
7.417000e+0,2.49e-1,
7.417100e+0,2.49e-1,
7.417200e+0,2.49e-1,
7.417300e+0,2.50e-1,
7.417400e+0,2.50e-1,
7.417500e+0,2.49e-1,
7.417600e+0,2.49e-1,
7.417700e+0,2.50e-1,
7.417800e+0,2.50e-1,
7.417900e+0,2.51e-1,
7.418000e+0,2.51e-1,
7.418100e+0,2.50e-1,
7.418200e+0,2.50e-1,
7.418300e+0,2.50e-1,
7.418400e+0,2.50e-1,
7.418500e+0,2.51e-1,
7.418600e+0,2.51e-1,
7.418700e+0,2.51e-1,
7.418800e+0,2.51e-1,
7.418900e+0,2.51e-1,
7.419000e+0,2.51e-1,
7.419100e+0,2.51e-1,
7.419200e+0,2.51e-1,
7.419300e+0,2.51e-1,
7.419400e+0,2.51e-1,
7.419500e+0,2.52e-1,
7.419600e+0,2.52e-1,
7.419700e+0,2.51e-1,
7.419800e+0,2.51e-1,
7.419900e+0,2.52e-1,
7.420000e+0,2.52e-1,
7.420100e+0,2.52e-1,
7.420200e+0,2.52e-1,
7.420300e+0,2.52e-1,
7.420400e+0,2.52e-1,
7.420500e+0,2.52e-1,
7.420600e+0,2.52e-1,
7.420700e+0,2.53e-1,
7.420800e+0,2.53e-1,
7.420900e+0,2.52e-1,
7.421000e+0,2.52e-1,
7.421100e+0,2.53e-1,
7.421200e+0,2.53e-1,
7.421300e+0,2.53e-1,
7.421400e+0,2.53e-1,
7.421500e+0,2.52e-1,
7.421600e+0,2.52e-1,
7.421700e+0,2.53e-1,
7.421800e+0,2.53e-1,
7.421900e+0,2.54e-1,
7.422000e+0,2.54e-1,
7.422100e+0,2.53e-1,
7.422200e+0,2.53e-1,
7.422300e+0,2.54e-1,
7.422400e+0,2.54e-1,
7.422500e+0,2.55e-1,
7.422600e+0,2.55e-1,
7.422700e+0,2.55e-1,
7.422800e+0,2.55e-1,
7.422900e+0,2.55e-1,
7.423000e+0,2.55e-1,
7.423100e+0,2.56e-1,
7.423200e+0,2.56e-1,
7.423300e+0,2.56e-1,
7.423400e+0,2.56e-1,
7.423500e+0,2.56e-1,
7.423600e+0,2.56e-1,
7.423700e+0,2.56e-1,
7.423800e+0,2.56e-1,
7.423900e+0,2.56e-1,
7.424000e+0,2.56e-1,
7.424100e+0,2.57e-1,
7.424200e+0,2.57e-1,
7.424300e+0,2.56e-1,
7.424400e+0,2.56e-1,
7.424500e+0,2.56e-1,
7.424600e+0,2.56e-1,
7.424700e+0,2.58e-1,
7.424800e+0,2.58e-1,
7.424900e+0,2.58e-1,
7.425000e+0,2.58e-1,
7.425100e+0,2.57e-1,
7.425200e+0,2.57e-1,
7.425300e+0,2.59e-1,
7.425400e+0,2.59e-1,
7.425500e+0,2.58e-1,
7.425600e+0,2.58e-1,
7.425700e+0,2.59e-1,
7.425800e+0,2.59e-1,
7.425900e+0,2.59e-1,
7.426000e+0,2.59e-1,
7.426100e+0,2.60e-1,
7.426200e+0,2.60e-1,
7.426300e+0,2.60e-1,
7.426400e+0,2.60e-1,
7.426500e+0,2.60e-1,
7.426600e+0,2.60e-1,
7.426700e+0,2.60e-1,
7.426800e+0,2.60e-1,
7.426900e+0,2.60e-1,
7.427000e+0,2.60e-1,
7.427100e+0,2.61e-1,
7.427200e+0,2.61e-1,
7.427300e+0,2.62e-1,
7.427400e+0,2.62e-1,
7.427500e+0,2.62e-1,
7.427600e+0,2.62e-1,
7.427700e+0,2.62e-1,
7.427800e+0,2.62e-1,
7.427900e+0,2.63e-1,
7.428000e+0,2.63e-1,
7.428100e+0,2.63e-1,
7.428200e+0,2.63e-1,
7.428300e+0,2.64e-1,
7.428400e+0,2.64e-1,
7.428500e+0,2.64e-1,
7.428600e+0,2.64e-1,
7.428700e+0,2.64e-1,
7.428800e+0,2.64e-1,
7.428900e+0,2.64e-1,
7.429000e+0,2.64e-1,
7.429100e+0,2.65e-1,
7.429200e+0,2.65e-1,
7.429300e+0,2.65e-1,
7.429400e+0,2.65e-1,
7.429500e+0,2.65e-1,
7.429600e+0,2.65e-1,
7.429700e+0,2.66e-1,
7.429800e+0,2.66e-1,
7.429900e+0,2.66e-1,
7.430000e+0,2.66e-1,
7.430100e+0,2.66e-1,
7.430200e+0,2.66e-1,
7.430300e+0,2.66e-1,
7.430400e+0,2.66e-1,
7.430500e+0,2.66e-1,
7.430600e+0,2.66e-1,
7.430700e+0,2.67e-1,
7.430800e+0,2.67e-1,
7.430900e+0,2.67e-1,
7.431000e+0,2.67e-1,
7.431100e+0,2.68e-1,
7.431200e+0,2.68e-1,
7.431300e+0,2.68e-1,
7.431400e+0,2.68e-1,
7.431500e+0,2.68e-1,
7.431600e+0,2.68e-1,
7.431700e+0,2.68e-1,
7.431800e+0,2.68e-1,
7.431900e+0,2.68e-1,
7.432000e+0,2.68e-1,
7.432100e+0,2.69e-1,
7.432200e+0,2.69e-1,
7.432300e+0,2.69e-1,
7.432400e+0,2.69e-1,
7.432500e+0,2.70e-1,
7.432600e+0,2.70e-1,
7.432700e+0,2.70e-1,
7.432800e+0,2.70e-1,
7.432900e+0,2.71e-1,
7.433000e+0,2.71e-1,
7.433100e+0,2.72e-1,
7.433200e+0,2.72e-1,
7.433300e+0,2.72e-1,
7.433400e+0,2.72e-1,
7.433500e+0,2.72e-1,
7.433600e+0,2.72e-1,
7.433700e+0,2.72e-1,
7.433800e+0,2.72e-1,
7.433900e+0,2.72e-1,
7.434000e+0,2.72e-1,
7.434100e+0,2.72e-1,
7.434200e+0,2.72e-1,
7.434300e+0,2.73e-1,
7.434400e+0,2.73e-1,
7.434500e+0,2.74e-1,
7.434600e+0,2.74e-1,
7.434700e+0,2.74e-1,
7.434800e+0,2.74e-1,
7.434900e+0,2.73e-1,
7.435000e+0,2.73e-1,
7.435100e+0,2.74e-1,
7.435200e+0,2.74e-1,
7.435300e+0,2.73e-1,
7.435400e+0,2.73e-1,
7.435500e+0,2.75e-1,
7.435600e+0,2.75e-1,
7.435700e+0,2.75e-1,
7.435800e+0,2.75e-1,
7.435900e+0,2.75e-1,
7.436000e+0,2.75e-1,
7.436100e+0,2.75e-1,
7.436200e+0,2.75e-1,
7.436300e+0,2.75e-1,
7.436400e+0,2.75e-1,
7.436500e+0,2.75e-1,
7.436600e+0,2.75e-1,
7.436700e+0,2.76e-1,
7.436800e+0,2.76e-1,
7.436900e+0,2.76e-1,
7.437000e+0,2.76e-1,
7.437100e+0,2.76e-1,
7.437200e+0,2.76e-1,
7.437300e+0,2.76e-1,
7.437400e+0,2.76e-1,
7.437500e+0,2.76e-1,
7.437600e+0,2.76e-1,
7.437700e+0,2.77e-1,
7.437800e+0,2.77e-1,
7.437900e+0,2.77e-1,
7.438000e+0,2.77e-1,
7.438100e+0,2.77e-1,
7.438200e+0,2.77e-1,
7.438300e+0,2.78e-1,
7.438400e+0,2.78e-1,
7.438500e+0,2.78e-1,
7.438600e+0,2.78e-1,
7.438700e+0,2.78e-1,
7.438800e+0,2.78e-1,
7.438900e+0,2.80e-1,
7.439000e+0,2.80e-1,
7.439100e+0,2.79e-1,
7.439200e+0,2.79e-1,
7.439300e+0,2.80e-1,
7.439400e+0,2.80e-1,
7.439500e+0,2.80e-1,
7.439600e+0,2.80e-1,
7.439700e+0,2.80e-1,
7.439800e+0,2.80e-1,
7.439900e+0,2.80e-1,
7.440000e+0,2.80e-1,
7.440100e+0,2.80e-1,
7.440200e+0,2.80e-1,
7.440300e+0,2.80e-1,
7.440400e+0,2.80e-1,
7.440500e+0,2.81e-1,
7.440600e+0,2.81e-1,
7.440700e+0,2.81e-1,
7.440800e+0,2.81e-1,
7.440900e+0,2.82e-1,
7.441000e+0,2.82e-1,
7.441100e+0,2.82e-1,
7.441200e+0,2.82e-1,
7.441300e+0,2.82e-1,
7.441400e+0,2.82e-1,
7.441500e+0,2.82e-1,
7.441600e+0,2.82e-1,
7.441700e+0,2.82e-1,
7.441800e+0,2.82e-1,
7.441900e+0,2.83e-1,
7.442000e+0,2.83e-1,
7.442100e+0,2.84e-1,
7.442200e+0,2.84e-1,
7.442300e+0,2.84e-1,
7.442400e+0,2.84e-1,
7.442500e+0,2.84e-1,
7.442600e+0,2.84e-1,
7.442700e+0,2.84e-1,
7.442800e+0,2.84e-1,
7.442900e+0,2.84e-1,
7.443000e+0,2.84e-1,
7.443100e+0,2.84e-1,
7.443200e+0,2.84e-1,
7.443300e+0,2.86e-1,
7.443400e+0,2.86e-1,
7.443500e+0,2.86e-1,
7.443600e+0,2.86e-1,
7.443700e+0,2.86e-1,
7.443800e+0,2.86e-1,
7.443900e+0,2.87e-1,
7.444000e+0,2.87e-1,
7.444100e+0,2.87e-1,
7.444200e+0,2.87e-1,
7.444300e+0,2.88e-1,
7.444400e+0,2.88e-1,
7.444500e+0,2.88e-1,
7.444600e+0,2.88e-1,
7.444700e+0,2.88e-1,
7.444800e+0,2.88e-1,
7.444900e+0,2.88e-1,
7.445000e+0,2.88e-1,
7.445100e+0,2.89e-1,
7.445200e+0,2.89e-1,
7.445300e+0,2.90e-1,
7.445400e+0,2.90e-1,
7.445500e+0,2.90e-1,
7.445600e+0,2.90e-1,
7.445700e+0,2.91e-1,
7.445800e+0,2.91e-1,
7.445900e+0,2.91e-1,
7.446000e+0,2.91e-1,
7.446100e+0,2.91e-1,
7.446200e+0,2.91e-1,
7.446300e+0,2.91e-1,
7.446400e+0,2.91e-1,
7.446500e+0,2.92e-1,
7.446600e+0,2.92e-1,
7.446700e+0,2.92e-1,
7.446800e+0,2.92e-1,
7.446900e+0,2.92e-1,
7.447000e+0,2.92e-1,
7.447100e+0,2.92e-1,
7.447200e+0,2.92e-1,
7.447300e+0,2.92e-1,
7.447400e+0,2.92e-1,
7.447500e+0,2.93e-1,
7.447600e+0,2.93e-1,
7.447700e+0,2.92e-1,
7.447800e+0,2.92e-1,
7.447900e+0,2.93e-1,
7.448000e+0,2.93e-1,
7.448100e+0,2.94e-1,
7.448200e+0,2.94e-1,
7.448300e+0,2.95e-1,
7.448400e+0,2.95e-1,
7.448500e+0,2.95e-1,
7.448600e+0,2.95e-1,
7.448700e+0,2.95e-1,
7.448800e+0,2.95e-1,
7.448900e+0,2.95e-1,
7.449000e+0,2.95e-1,
7.449100e+0,2.96e-1,
7.449200e+0,2.96e-1,
7.449300e+0,2.96e-1,
7.449400e+0,2.96e-1,
7.449500e+0,2.96e-1,
7.449600e+0,2.96e-1,
7.449700e+0,2.96e-1,
7.449800e+0,2.96e-1,
7.449900e+0,2.97e-1,
7.450000e+0,2.97e-1,
7.450100e+0,2.98e-1,
7.450200e+0,2.98e-1,
7.450300e+0,2.98e-1,
7.450400e+0,2.98e-1,
7.450500e+0,2.99e-1,
7.450600e+0,2.99e-1,
7.450700e+0,2.98e-1,
7.450800e+0,2.98e-1,
7.450900e+0,3.00e-1,
7.451000e+0,3.00e-1,
7.451100e+0,3.00e-1,
7.451200e+0,3.00e-1,
7.451300e+0,3.00e-1,
7.451400e+0,3.00e-1,
7.451500e+0,3.00e-1,
7.451600e+0,3.00e-1,
7.451700e+0,3.00e-1,
7.451800e+0,3.00e-1,
7.451900e+0,3.00e-1,
7.452000e+0,3.00e-1,
7.452100e+0,3.00e-1,
7.452200e+0,3.00e-1,
7.452300e+0,3.00e-1,
7.452400e+0,3.00e-1,
7.452500e+0,3.00e-1,
7.452600e+0,3.00e-1,
7.452700e+0,3.00e-1,
7.452800e+0,3.00e-1,
7.452900e+0,3.00e-1,
7.453000e+0,3.00e-1,
7.453100e+0,3.00e-1,
7.453200e+0,3.00e-1,
7.453300e+0,3.00e-1,
7.453400e+0,3.00e-1,
7.453500e+0,3.01e-1,
7.453600e+0,3.01e-1,
7.453700e+0,3.02e-1,
7.453800e+0,3.02e-1,
7.453900e+0,3.01e-1,
7.454000e+0,3.01e-1,
7.454100e+0,3.01e-1,
7.454200e+0,3.01e-1,
7.454300e+0,3.02e-1,
7.454400e+0,3.02e-1,
7.454500e+0,3.03e-1,
7.454600e+0,3.03e-1,
7.454700e+0,3.03e-1,
7.454800e+0,3.03e-1,
7.454900e+0,3.03e-1,
7.455000e+0,3.03e-1,
7.455100e+0,3.04e-1,
7.455200e+0,3.04e-1,
7.455300e+0,3.03e-1,
7.455400e+0,3.03e-1,
7.455500e+0,3.04e-1,
7.455600e+0,3.04e-1,
7.455700e+0,3.04e-1,
7.455800e+0,3.04e-1,
7.455900e+0,3.04e-1,
7.456000e+0,3.04e-1,
7.456100e+0,3.05e-1,
7.456200e+0,3.05e-1,
7.456300e+0,3.05e-1,
7.456400e+0,3.05e-1,
7.456500e+0,3.05e-1,
7.456600e+0,3.05e-1,
7.456700e+0,3.06e-1,
7.456800e+0,3.06e-1,
7.456900e+0,3.05e-1,
7.457000e+0,3.05e-1,
7.457100e+0,3.06e-1,
7.457200e+0,3.06e-1,
7.457300e+0,3.06e-1,
7.457400e+0,3.06e-1,
7.457500e+0,3.07e-1,
7.457600e+0,3.07e-1,
7.457700e+0,3.07e-1,
7.457800e+0,3.07e-1,
7.457900e+0,3.07e-1,
7.458000e+0,3.07e-1,
7.458100e+0,3.07e-1,
7.458200e+0,3.07e-1,
7.458300e+0,3.07e-1,
7.458400e+0,3.07e-1,
7.458500e+0,3.08e-1,
7.458600e+0,3.08e-1,
7.458700e+0,3.08e-1,
7.458800e+0,3.08e-1,
7.458900e+0,3.08e-1,
7.459000e+0,3.08e-1,
7.459100e+0,3.08e-1,
7.459200e+0,3.08e-1,
7.459300e+0,3.09e-1,
7.459400e+0,3.09e-1,
7.459500e+0,3.09e-1,
7.459600e+0,3.09e-1,
7.459700e+0,3.10e-1,
7.459800e+0,3.10e-1,
7.459900e+0,3.09e-1,
7.460000e+0,3.09e-1,
7.460100e+0,3.10e-1,
7.460200e+0,3.10e-1,
7.460300e+0,3.10e-1,
7.460400e+0,3.10e-1,
7.460500e+0,3.11e-1,
7.460600e+0,3.11e-1,
7.460700e+0,3.11e-1,
7.460800e+0,3.11e-1,
7.460900e+0,3.11e-1,
7.461000e+0,3.11e-1,
7.461100e+0,3.12e-1,
7.461200e+0,3.12e-1,
7.461300e+0,3.12e-1,
7.461400e+0,3.12e-1,
7.461500e+0,3.12e-1,
7.461600e+0,3.12e-1,
7.461700e+0,3.12e-1,
7.461800e+0,3.12e-1,
7.461900e+0,3.12e-1,
7.462000e+0,3.12e-1,
7.462100e+0,3.13e-1,
7.462200e+0,3.13e-1,
7.462300e+0,3.13e-1,
7.462400e+0,3.13e-1,
7.462500e+0,3.13e-1,
7.462600e+0,3.13e-1,
7.462700e+0,3.14e-1,
7.462800e+0,3.14e-1,
7.462900e+0,3.14e-1,
7.463000e+0,3.14e-1,
7.463100e+0,3.14e-1,
7.463200e+0,3.14e-1,
7.463300e+0,3.15e-1,
7.463400e+0,3.15e-1,
7.463500e+0,3.15e-1,
7.463600e+0,3.15e-1,
7.463700e+0,3.16e-1,
7.463800e+0,3.16e-1,
7.463900e+0,3.16e-1,
7.464000e+0,3.16e-1,
7.464100e+0,3.16e-1,
7.464200e+0,3.16e-1,
7.464300e+0,3.16e-1,
7.464400e+0,3.16e-1,
7.464500e+0,3.16e-1,
7.464600e+0,3.16e-1,
7.464700e+0,3.16e-1,
7.464800e+0,3.16e-1,
7.464900e+0,3.17e-1,
7.465000e+0,3.17e-1,
7.465100e+0,3.17e-1,
7.465200e+0,3.17e-1,
7.465300e+0,3.17e-1,
7.465400e+0,3.17e-1,
7.465500e+0,3.18e-1,
7.465600e+0,3.18e-1,
7.465700e+0,3.19e-1,
7.465800e+0,3.19e-1,
7.465900e+0,3.18e-1,
7.466000e+0,3.18e-1,
7.466100e+0,3.19e-1,
7.466200e+0,3.19e-1,
7.466300e+0,3.19e-1,
7.466400e+0,3.19e-1,
7.466500e+0,3.19e-1,
7.466600e+0,3.19e-1,
7.466700e+0,3.19e-1,
7.466800e+0,3.19e-1,
7.466900e+0,3.20e-1,
7.467000e+0,3.20e-1,
7.467100e+0,3.20e-1,
7.467200e+0,3.20e-1,
7.467300e+0,3.20e-1,
7.467400e+0,3.20e-1,
7.467500e+0,3.20e-1,
7.467600e+0,3.20e-1,
7.467700e+0,3.20e-1,
7.467800e+0,3.20e-1,
7.467900e+0,3.21e-1,
7.468000e+0,3.21e-1,
7.468100e+0,3.21e-1,
7.468200e+0,3.21e-1,
7.468300e+0,3.20e-1,
7.468400e+0,3.20e-1,
7.468500e+0,3.21e-1,
7.468600e+0,3.21e-1,
7.468700e+0,3.21e-1,
7.468800e+0,3.21e-1,
7.468900e+0,3.21e-1,
7.469000e+0,3.21e-1,
7.469100e+0,3.21e-1,
7.469200e+0,3.21e-1,
7.469300e+0,3.21e-1,
7.469400e+0,3.21e-1,
7.469500e+0,3.21e-1,
7.469600e+0,3.21e-1,
7.469700e+0,3.22e-1,
7.469800e+0,3.22e-1,
7.469900e+0,3.22e-1,
7.470000e+0,3.22e-1,
7.470100e+0,3.22e-1,
7.470200e+0,3.22e-1,
7.470300e+0,3.22e-1,
7.470400e+0,3.22e-1,
7.470500e+0,3.23e-1,
7.470600e+0,3.23e-1,
7.470700e+0,3.23e-1,
7.470800e+0,3.23e-1,
7.470900e+0,3.23e-1,
7.471000e+0,3.23e-1,
7.471100e+0,3.23e-1,
7.471200e+0,3.23e-1,
7.471300e+0,3.23e-1,
7.471400e+0,3.23e-1,
7.471500e+0,3.23e-1,
7.471600e+0,3.23e-1,
7.471700e+0,3.24e-1,
7.471800e+0,3.24e-1,
7.471900e+0,3.24e-1,
7.472000e+0,3.24e-1,
7.472100e+0,3.24e-1,
7.472200e+0,3.24e-1,
7.472300e+0,3.24e-1,
7.472400e+0,3.24e-1,
7.472500e+0,3.24e-1,
7.472600e+0,3.24e-1,
7.472700e+0,3.24e-1,
7.472800e+0,3.24e-1,
7.472900e+0,3.24e-1,
7.473000e+0,3.24e-1,
7.473100e+0,3.25e-1,
7.473200e+0,3.25e-1,
7.473300e+0,3.25e-1,
7.473400e+0,3.25e-1,
7.473500e+0,3.25e-1,
7.473600e+0,3.25e-1,
7.473700e+0,3.25e-1,
7.473800e+0,3.25e-1,
7.473900e+0,3.25e-1,
7.474000e+0,3.25e-1,
7.474100e+0,3.25e-1,
7.474200e+0,3.25e-1,
7.474300e+0,3.26e-1,
7.474400e+0,3.26e-1,
7.474500e+0,3.26e-1,
7.474600e+0,3.26e-1,
7.474700e+0,3.27e-1,
7.474800e+0,3.27e-1,
7.474900e+0,3.27e-1,
7.475000e+0,3.27e-1,
7.475100e+0,3.27e-1,
7.475200e+0,3.27e-1,
7.475300e+0,3.27e-1,
7.475400e+0,3.27e-1,
7.475500e+0,3.28e-1,
7.475600e+0,3.28e-1,
7.475700e+0,3.27e-1,
7.475800e+0,3.27e-1,
7.475900e+0,3.28e-1,
7.476000e+0,3.28e-1,
7.476100e+0,3.28e-1,
7.476200e+0,3.28e-1,
7.476300e+0,3.28e-1,
7.476400e+0,3.28e-1,
7.476500e+0,3.27e-1,
7.476600e+0,3.27e-1,
7.476700e+0,3.28e-1,
7.476800e+0,3.28e-1,
7.476900e+0,3.28e-1,
7.477000e+0,3.28e-1,
7.477100e+0,3.29e-1,
7.477200e+0,3.29e-1,
7.477300e+0,3.29e-1,
7.477400e+0,3.29e-1,
7.477500e+0,3.29e-1,
7.477600e+0,3.29e-1,
7.477700e+0,3.29e-1,
7.477800e+0,3.29e-1,
7.477900e+0,3.30e-1,
7.478000e+0,3.30e-1,
7.478100e+0,3.29e-1,
7.478200e+0,3.29e-1,
7.478300e+0,3.30e-1,
7.478400e+0,3.30e-1,
7.478500e+0,3.30e-1,
7.478600e+0,3.30e-1,
7.478700e+0,3.31e-1,
7.478800e+0,3.31e-1,
7.478900e+0,3.31e-1,
7.479000e+0,3.31e-1,
7.479100e+0,3.32e-1,
7.479200e+0,3.32e-1,
7.479300e+0,3.31e-1,
7.479400e+0,3.31e-1,
7.479500e+0,3.31e-1,
7.479600e+0,3.31e-1,
7.479700e+0,3.32e-1,
7.479800e+0,3.32e-1,
7.479900e+0,3.32e-1,
7.480000e+0,3.32e-1,
7.480100e+0,3.32e-1,
7.480200e+0,3.32e-1,
7.480300e+0,3.32e-1,
7.480400e+0,3.32e-1,
7.480500e+0,3.32e-1,
7.480600e+0,3.32e-1,
7.480700e+0,3.32e-1,
7.480800e+0,3.32e-1,
7.480900e+0,3.32e-1,
7.481000e+0,3.32e-1,
7.481100e+0,3.32e-1,
7.481200e+0,3.32e-1,
7.481300e+0,3.33e-1,
7.481400e+0,3.33e-1,
7.481500e+0,3.33e-1,
7.481600e+0,3.33e-1,
7.481700e+0,3.32e-1,
7.481800e+0,3.32e-1,
7.481900e+0,3.33e-1,
7.482000e+0,3.33e-1,
7.482100e+0,3.34e-1,
7.482200e+0,3.34e-1,
7.482300e+0,3.33e-1,
7.482400e+0,3.33e-1,
7.482500e+0,3.34e-1,
7.482600e+0,3.34e-1,
7.482700e+0,3.33e-1,
7.482800e+0,3.33e-1,
7.482900e+0,3.34e-1,
7.483000e+0,3.34e-1,
7.483100e+0,3.34e-1,
7.483200e+0,3.34e-1,
7.483300e+0,3.35e-1,
7.483400e+0,3.35e-1,
7.483500e+0,3.35e-1,
7.483600e+0,3.35e-1,
7.483700e+0,3.35e-1,
7.483800e+0,3.35e-1,
7.483900e+0,3.35e-1,
7.484000e+0,3.35e-1,
7.484100e+0,3.35e-1,
7.484200e+0,3.35e-1,
7.484300e+0,3.35e-1,
7.484400e+0,3.35e-1,
7.484500e+0,3.36e-1,
7.484600e+0,3.36e-1,
7.484700e+0,3.36e-1,
7.484800e+0,3.36e-1,
7.484900e+0,3.36e-1,
7.485000e+0,3.36e-1,
7.485100e+0,3.36e-1,
7.485200e+0,3.36e-1,
7.485300e+0,3.36e-1,
7.485400e+0,3.36e-1,
7.485500e+0,3.36e-1,
7.485600e+0,3.36e-1,
7.485700e+0,3.36e-1,
7.485800e+0,3.36e-1,
7.485900e+0,3.36e-1,
7.486000e+0,3.36e-1,
7.486100e+0,3.36e-1,
7.486200e+0,3.36e-1,
7.486300e+0,3.36e-1,
7.486400e+0,3.36e-1,
7.486500e+0,3.36e-1,
7.486600e+0,3.36e-1,
7.486700e+0,3.36e-1,
7.486800e+0,3.36e-1,
7.486900e+0,3.36e-1,
7.487000e+0,3.36e-1,
7.487100e+0,3.36e-1,
7.487200e+0,3.36e-1,
7.487300e+0,3.37e-1,
7.487400e+0,3.37e-1,
7.487500e+0,3.36e-1,
7.487600e+0,3.36e-1,
7.487700e+0,3.36e-1,
7.487800e+0,3.36e-1,
7.487900e+0,3.37e-1,
7.488000e+0,3.37e-1,
7.488100e+0,3.36e-1,
7.488200e+0,3.36e-1,
7.488300e+0,3.37e-1,
7.488400e+0,3.37e-1,
7.488500e+0,3.37e-1,
7.488600e+0,3.37e-1,
7.488700e+0,3.37e-1,
7.488800e+0,3.37e-1,
7.488900e+0,3.38e-1,
7.489000e+0,3.38e-1,
7.489100e+0,3.37e-1,
7.489200e+0,3.37e-1,
7.489300e+0,3.37e-1,
7.489400e+0,3.37e-1,
7.489500e+0,3.38e-1,
7.489600e+0,3.38e-1,
7.489700e+0,3.38e-1,
7.489800e+0,3.38e-1,
7.489900e+0,3.38e-1,
7.490000e+0,3.38e-1,
7.490100e+0,3.38e-1,
7.490200e+0,3.38e-1,
7.490300e+0,3.38e-1,
7.490400e+0,3.38e-1,
7.490500e+0,3.38e-1,
7.490600e+0,3.38e-1,
7.490700e+0,3.38e-1,
7.490800e+0,3.38e-1,
7.490900e+0,3.38e-1,
7.491000e+0,3.38e-1,
7.491100e+0,3.38e-1,
7.491200e+0,3.38e-1,
7.491300e+0,3.38e-1,
7.491400e+0,3.38e-1,
7.491500e+0,3.39e-1,
7.491600e+0,3.39e-1,
7.491700e+0,3.39e-1,
7.491800e+0,3.39e-1,
7.491900e+0,3.39e-1,
7.492000e+0,3.39e-1,
7.492100e+0,3.39e-1,
7.492200e+0,3.39e-1,
7.492300e+0,3.40e-1,
7.492400e+0,3.40e-1,
7.492500e+0,3.40e-1,
7.492600e+0,3.40e-1,
7.492700e+0,3.39e-1,
7.492800e+0,3.39e-1,
7.492900e+0,3.40e-1,
7.493000e+0,3.40e-1,
7.493100e+0,3.40e-1,
7.493200e+0,3.40e-1,
7.493300e+0,3.40e-1,
7.493400e+0,3.40e-1,
7.493500e+0,3.40e-1,
7.493600e+0,3.40e-1,
7.493700e+0,3.40e-1,
7.493800e+0,3.40e-1,
7.493900e+0,3.40e-1,
7.494000e+0,3.40e-1,
7.494100e+0,3.40e-1,
7.494200e+0,3.40e-1,
7.494300e+0,3.40e-1,
7.494400e+0,3.40e-1,
7.494500e+0,3.41e-1,
7.494600e+0,3.41e-1,
7.494700e+0,3.41e-1,
7.494800e+0,3.41e-1,
7.494900e+0,3.41e-1,
7.495000e+0,3.41e-1,
7.495100e+0,3.41e-1,
7.495200e+0,3.41e-1,
7.495300e+0,3.41e-1,
7.495400e+0,3.41e-1,
7.495500e+0,3.41e-1,
7.495600e+0,3.41e-1,
7.495700e+0,3.42e-1,
7.495800e+0,3.42e-1,
7.495900e+0,3.42e-1,
7.496000e+0,3.42e-1,
7.496100e+0,3.42e-1,
7.496200e+0,3.42e-1,
7.496300e+0,3.42e-1,
7.496400e+0,3.42e-1,
7.496500e+0,3.41e-1,
7.496600e+0,3.41e-1,
7.496700e+0,3.42e-1,
7.496800e+0,3.42e-1,
7.496900e+0,3.41e-1,
7.497000e+0,3.41e-1,
7.497100e+0,3.43e-1,
7.497200e+0,3.43e-1,
7.497300e+0,3.41e-1,
7.497400e+0,3.41e-1,
7.497500e+0,3.42e-1,
7.497600e+0,3.42e-1,
7.497700e+0,3.42e-1,
7.497800e+0,3.42e-1,
7.497900e+0,3.42e-1,
7.498000e+0,3.42e-1,
7.498100e+0,3.43e-1,
7.498200e+0,3.43e-1,
7.498300e+0,3.42e-1,
7.498400e+0,3.42e-1,
7.498500e+0,3.44e-1,
7.498600e+0,3.44e-1,
7.498700e+0,3.43e-1,
7.498800e+0,3.43e-1,
7.498900e+0,3.43e-1,
7.499000e+0,3.43e-1,
7.499100e+0,3.43e-1,
7.499200e+0,3.43e-1,
7.499300e+0,3.43e-1,
7.499400e+0,3.43e-1,
7.499500e+0,3.44e-1,
7.499600e+0,3.44e-1,
7.499700e+0,3.43e-1,
7.499800e+0,3.43e-1,
7.499900e+0,3.43e-1,
7.500000e+0,3.43e-1,
7.500100e+0,3.43e-1,
7.500200e+0,3.43e-1,
7.500300e+0,3.44e-1,
7.500400e+0,3.44e-1,
7.500500e+0,3.44e-1,
7.500600e+0,3.44e-1,
7.500700e+0,3.44e-1,
7.500800e+0,3.44e-1,
7.500900e+0,3.44e-1,
7.501000e+0,3.44e-1,
7.501100e+0,3.44e-1,
7.501200e+0,3.44e-1,
7.501300e+0,3.44e-1,
7.501400e+0,3.44e-1,
7.501500e+0,3.44e-1,
7.501600e+0,3.44e-1,
7.501700e+0,3.44e-1,
7.501800e+0,3.44e-1,
7.501900e+0,3.44e-1,
7.502000e+0,3.44e-1,
7.502100e+0,3.44e-1,
7.502200e+0,3.44e-1,
7.502300e+0,3.44e-1,
7.502400e+0,3.44e-1,
7.502500e+0,3.44e-1,
7.502600e+0,3.44e-1,
7.502700e+0,3.44e-1,
7.502800e+0,3.44e-1,
7.502900e+0,3.44e-1,
7.503000e+0,3.44e-1,
7.503100e+0,3.44e-1,
7.503200e+0,3.44e-1,
7.503300e+0,3.44e-1,
7.503400e+0,3.44e-1,
7.503500e+0,3.44e-1,
7.503600e+0,3.44e-1,
7.503700e+0,3.44e-1,
7.503800e+0,3.44e-1,
7.503900e+0,3.44e-1,
7.504000e+0,3.44e-1,
7.504100e+0,3.44e-1,
7.504200e+0,3.44e-1,
7.504300e+0,3.44e-1,
7.504400e+0,3.44e-1,
7.504500e+0,3.44e-1,
7.504600e+0,3.44e-1,
7.504700e+0,3.44e-1,
7.504800e+0,3.44e-1,
7.504900e+0,3.44e-1,
7.505000e+0,3.44e-1,
7.505100e+0,3.44e-1,
7.505200e+0,3.44e-1,
7.505300e+0,3.44e-1,
7.505400e+0,3.44e-1,
7.505500e+0,3.44e-1,
7.505600e+0,3.44e-1,
7.505700e+0,3.44e-1,
7.505800e+0,3.44e-1,
7.505900e+0,3.45e-1,
7.506000e+0,3.45e-1,
7.506100e+0,3.44e-1,
7.506200e+0,3.44e-1,
7.506300e+0,3.44e-1,
7.506400e+0,3.44e-1,
7.506500e+0,3.45e-1,
7.506600e+0,3.45e-1,
7.506700e+0,3.45e-1,
7.506800e+0,3.45e-1,
7.506900e+0,3.44e-1,
7.507000e+0,3.44e-1,
7.507100e+0,3.45e-1,
7.507200e+0,3.45e-1,
7.507300e+0,3.45e-1,
7.507400e+0,3.45e-1,
7.507500e+0,3.45e-1,
7.507600e+0,3.45e-1,
7.507700e+0,3.45e-1,
7.507800e+0,3.45e-1,
7.507900e+0,3.45e-1,
7.508000e+0,3.45e-1,
7.508100e+0,3.45e-1,
7.508200e+0,3.45e-1,
7.508300e+0,3.45e-1,
7.508400e+0,3.45e-1,
7.508500e+0,3.46e-1,
7.508600e+0,3.46e-1,
7.508700e+0,3.45e-1,
7.508800e+0,3.45e-1,
7.508900e+0,3.45e-1,
7.509000e+0,3.45e-1,
7.509100e+0,3.45e-1,
7.509200e+0,3.45e-1,
7.509300e+0,3.45e-1,
7.509400e+0,3.45e-1,
7.509500e+0,3.46e-1,
7.509600e+0,3.46e-1,
7.509700e+0,3.46e-1,
7.509800e+0,3.46e-1,
7.509900e+0,3.45e-1,
7.510000e+0,3.45e-1,
7.510100e+0,3.45e-1,
7.510200e+0,3.45e-1,
7.510300e+0,3.46e-1,
7.510400e+0,3.46e-1,
7.510500e+0,3.46e-1,
7.510600e+0,3.46e-1,
7.510700e+0,3.47e-1,
7.510800e+0,3.47e-1,
7.510900e+0,3.46e-1,
7.511000e+0,3.46e-1,
7.511100e+0,3.46e-1,
7.511200e+0,3.46e-1,
7.511300e+0,3.46e-1,
7.511400e+0,3.46e-1,
7.511500e+0,3.46e-1,
7.511600e+0,3.46e-1,
7.511700e+0,3.46e-1,
7.511800e+0,3.46e-1,
7.511900e+0,3.47e-1,
7.512000e+0,3.47e-1,
7.512100e+0,3.47e-1,
7.512200e+0,3.47e-1,
7.512300e+0,3.46e-1,
7.512400e+0,3.46e-1,
7.512500e+0,3.46e-1,
7.512600e+0,3.46e-1,
7.512700e+0,3.46e-1,
7.512800e+0,3.46e-1,
7.512900e+0,3.47e-1,
7.513000e+0,3.47e-1,
7.513100e+0,3.47e-1,
7.513200e+0,3.47e-1,
7.513300e+0,3.47e-1,
7.513400e+0,3.47e-1,
7.513500e+0,3.46e-1,
7.513600e+0,3.46e-1,
7.513700e+0,3.47e-1,
7.513800e+0,3.47e-1,
7.513900e+0,3.46e-1,
7.514000e+0,3.46e-1,
7.514100e+0,3.47e-1,
7.514200e+0,3.47e-1,
7.514300e+0,3.47e-1,
7.514400e+0,3.47e-1,
7.514500e+0,3.47e-1,
7.514600e+0,3.47e-1,
7.514700e+0,3.47e-1,
7.514800e+0,3.47e-1,
7.514900e+0,3.47e-1,
7.515000e+0,3.47e-1,
7.515100e+0,3.47e-1,
7.515200e+0,3.47e-1,
7.515300e+0,3.47e-1,
7.515400e+0,3.47e-1,
7.515500e+0,3.47e-1,
7.515600e+0,3.47e-1,
7.515700e+0,3.47e-1,
7.515800e+0,3.47e-1,
7.515900e+0,3.48e-1,
7.516000e+0,3.48e-1,
7.516100e+0,3.47e-1,
7.516200e+0,3.47e-1,
7.516300e+0,3.48e-1,
7.516400e+0,3.48e-1,
7.516500e+0,3.48e-1,
7.516600e+0,3.48e-1,
7.516700e+0,3.47e-1,
7.516800e+0,3.47e-1,
7.516900e+0,3.47e-1,
7.517000e+0,3.47e-1,
7.517100e+0,3.48e-1,
7.517200e+0,3.48e-1,
7.517300e+0,3.48e-1,
7.517400e+0,3.48e-1,
7.517500e+0,3.48e-1,
7.517600e+0,3.48e-1,
7.517700e+0,3.48e-1,
7.517800e+0,3.48e-1,
7.517900e+0,3.48e-1,
7.518000e+0,3.48e-1,
7.518100e+0,3.47e-1,
7.518200e+0,3.47e-1,
7.518300e+0,3.48e-1,
7.518400e+0,3.48e-1,
7.518500e+0,3.47e-1,
7.518600e+0,3.47e-1,
7.518700e+0,3.48e-1,
7.518800e+0,3.48e-1,
7.518900e+0,3.48e-1,
7.519000e+0,3.48e-1,
7.519100e+0,3.48e-1,
7.519200e+0,3.48e-1,
7.519300e+0,3.48e-1,
7.519400e+0,3.48e-1,
7.519500e+0,3.48e-1,
7.519600e+0,3.48e-1,
7.519700e+0,3.48e-1,
7.519800e+0,3.48e-1,
7.519900e+0,3.48e-1,
7.520000e+0,3.48e-1,
7.520100e+0,3.48e-1,
7.520200e+0,3.48e-1,
7.520300e+0,3.48e-1,
7.520400e+0,3.48e-1,
7.520500e+0,3.48e-1,
7.520600e+0,3.48e-1,
7.520700e+0,3.48e-1,
7.520800e+0,3.48e-1,
7.520900e+0,3.47e-1,
7.521000e+0,3.47e-1,
7.521100e+0,3.47e-1,
7.521200e+0,3.47e-1,
7.521300e+0,3.48e-1,
7.521400e+0,3.48e-1,
7.521500e+0,3.48e-1,
7.521600e+0,3.48e-1,
7.521700e+0,3.48e-1,
7.521800e+0,3.48e-1,
7.521900e+0,3.48e-1,
7.522000e+0,3.48e-1,
7.522100e+0,3.48e-1,
7.522200e+0,3.48e-1,
7.522300e+0,3.48e-1,
7.522400e+0,3.48e-1,
7.522500e+0,3.48e-1,
7.522600e+0,3.48e-1,
7.522700e+0,3.48e-1,
7.522800e+0,3.48e-1,
7.522900e+0,3.48e-1,
7.523000e+0,3.48e-1,
7.523100e+0,3.48e-1,
7.523200e+0,3.48e-1,
7.523300e+0,3.48e-1,
7.523400e+0,3.48e-1,
7.523500e+0,3.48e-1,
7.523600e+0,3.48e-1,
7.523700e+0,3.48e-1,
7.523800e+0,3.48e-1,
7.523900e+0,3.48e-1,
7.524000e+0,3.48e-1,
7.524100e+0,3.48e-1,
7.524200e+0,3.48e-1,
7.524300e+0,3.48e-1,
7.524400e+0,3.48e-1,
7.524500e+0,3.48e-1,
7.524600e+0,3.48e-1,
7.524700e+0,3.48e-1,
7.524800e+0,3.48e-1,
7.524900e+0,3.48e-1,
7.525000e+0,3.48e-1,
7.525100e+0,3.48e-1,
7.525200e+0,3.48e-1,
7.525300e+0,3.48e-1,
7.525400e+0,3.48e-1,
7.525500e+0,3.48e-1,
7.525600e+0,3.48e-1,
7.525700e+0,3.48e-1,
7.525800e+0,3.48e-1,
7.525900e+0,3.48e-1,
7.526000e+0,3.48e-1,
7.526100e+0,3.48e-1,
7.526200e+0,3.48e-1,
7.526300e+0,3.48e-1,
7.526400e+0,3.48e-1,
7.526500e+0,3.48e-1,
7.526600e+0,3.48e-1,
7.526700e+0,3.48e-1,
7.526800e+0,3.48e-1,
7.526900e+0,3.48e-1,
7.527000e+0,3.48e-1,
7.527100e+0,3.48e-1,
7.527200e+0,3.48e-1,
7.527300e+0,3.48e-1,
7.527400e+0,3.48e-1,
7.527500e+0,3.48e-1,
7.527600e+0,3.48e-1,
7.527700e+0,3.48e-1,
7.527800e+0,3.48e-1,
7.527900e+0,3.48e-1,
7.528000e+0,3.48e-1,
7.528100e+0,3.48e-1,
7.528200e+0,3.48e-1,
7.528300e+0,3.48e-1,
7.528400e+0,3.48e-1,
7.528500e+0,3.48e-1,
7.528600e+0,3.48e-1,
7.528700e+0,3.48e-1,
7.528800e+0,3.48e-1,
7.528900e+0,3.48e-1,
7.529000e+0,3.48e-1,
7.529100e+0,3.49e-1,
7.529200e+0,3.49e-1,
7.529300e+0,3.48e-1,
7.529400e+0,3.48e-1,
7.529500e+0,3.48e-1,
7.529600e+0,3.48e-1,
7.529700e+0,3.48e-1,
7.529800e+0,3.48e-1,
7.529900e+0,3.48e-1,
7.530000e+0,3.48e-1,
7.530100e+0,3.48e-1,
7.530200e+0,3.48e-1,
7.530300e+0,3.48e-1,
7.530400e+0,3.48e-1,
7.530500e+0,3.48e-1,
7.530600e+0,3.48e-1,
7.530700e+0,3.48e-1,
7.530800e+0,3.48e-1,
7.530900e+0,3.48e-1,
7.531000e+0,3.48e-1,
7.531100e+0,3.48e-1,
7.531200e+0,3.48e-1,
7.531300e+0,3.49e-1,
7.531400e+0,3.49e-1,
7.531500e+0,3.48e-1,
7.531600e+0,3.48e-1,
7.531700e+0,3.48e-1,
7.531800e+0,3.48e-1,
7.531900e+0,3.49e-1,
7.532000e+0,3.49e-1,
7.532100e+0,3.48e-1,
7.532200e+0,3.48e-1,
7.532300e+0,3.48e-1,
7.532400e+0,3.48e-1,
7.532500e+0,3.48e-1,
7.532600e+0,3.48e-1,
7.532700e+0,3.49e-1,
7.532800e+0,3.49e-1,
7.532900e+0,3.48e-1,
7.533000e+0,3.48e-1,
7.533100e+0,3.49e-1,
7.533200e+0,3.49e-1,
7.533300e+0,3.48e-1,
7.533400e+0,3.48e-1,
7.533500e+0,3.48e-1,
7.533600e+0,3.48e-1,
7.533700e+0,3.48e-1,
7.533800e+0,3.48e-1,
7.533900e+0,3.48e-1,
7.534000e+0,3.48e-1,
7.534100e+0,3.49e-1,
7.534200e+0,3.49e-1,
7.534300e+0,3.48e-1,
7.534400e+0,3.48e-1,
7.534500e+0,3.48e-1,
7.534600e+0,3.48e-1,
7.534700e+0,3.48e-1,
7.534800e+0,3.48e-1,
7.534900e+0,3.48e-1,
7.535000e+0,3.48e-1,
7.535100e+0,3.48e-1,
7.535200e+0,3.48e-1,
7.535300e+0,3.49e-1,
7.535400e+0,3.49e-1,
7.535500e+0,3.48e-1,
7.535600e+0,3.48e-1,
7.535700e+0,3.48e-1,
7.535800e+0,3.48e-1,
7.535900e+0,3.48e-1,
7.536000e+0,3.48e-1,
7.536100e+0,3.48e-1,
7.536200e+0,3.48e-1,
7.536300e+0,3.49e-1,
7.536400e+0,3.49e-1,
7.536500e+0,3.48e-1,
7.536600e+0,3.48e-1,
7.536700e+0,3.48e-1,
7.536800e+0,3.48e-1,
7.536900e+0,3.48e-1,
7.537000e+0,3.48e-1,
7.537100e+0,3.48e-1,
7.537200e+0,3.48e-1,
7.537300e+0,3.48e-1,
7.537400e+0,3.48e-1,
7.537500e+0,3.49e-1,
7.537600e+0,3.49e-1,
7.537700e+0,3.48e-1,
7.537800e+0,3.48e-1,
7.537900e+0,3.48e-1,
7.538000e+0,3.48e-1,
7.538100e+0,3.48e-1,
7.538200e+0,3.48e-1,
7.538300e+0,3.49e-1,
7.538400e+0,3.49e-1,
7.538500e+0,3.48e-1,
7.538600e+0,3.48e-1,
7.538700e+0,3.49e-1,
7.538800e+0,3.49e-1,
7.538900e+0,3.48e-1,
7.539000e+0,3.48e-1,
7.539100e+0,3.48e-1,
7.539200e+0,3.48e-1,
7.539300e+0,3.48e-1,
7.539400e+0,3.48e-1,
7.539500e+0,3.50e-1,
7.539600e+0,3.50e-1,
7.539700e+0,3.49e-1,
7.539800e+0,3.49e-1,
7.539900e+0,3.48e-1,
7.540000e+0,3.48e-1,
7.540100e+0,3.49e-1,
7.540200e+0,3.49e-1,
7.540300e+0,3.48e-1,
7.540400e+0,3.48e-1,
7.540500e+0,3.49e-1,
7.540600e+0,3.49e-1,
7.540700e+0,3.49e-1,
7.540800e+0,3.49e-1,
7.540900e+0,3.50e-1,
7.541000e+0,3.50e-1,
7.541100e+0,3.49e-1,
7.541200e+0,3.49e-1,
7.541300e+0,3.48e-1,
7.541400e+0,3.48e-1,
7.541500e+0,3.49e-1,
7.541600e+0,3.49e-1,
7.541700e+0,3.48e-1,
7.541800e+0,3.48e-1,
7.541900e+0,3.49e-1,
7.542000e+0,3.49e-1,
7.542100e+0,3.48e-1,
7.542200e+0,3.48e-1,
7.542300e+0,3.48e-1,
7.542400e+0,3.48e-1,
7.542500e+0,3.48e-1,
7.542600e+0,3.48e-1,
7.542700e+0,3.49e-1,
7.542800e+0,3.49e-1,
7.542900e+0,3.49e-1,
7.543000e+0,3.49e-1,
7.543100e+0,3.48e-1,
7.543200e+0,3.48e-1,
7.543300e+0,3.49e-1,
7.543400e+0,3.49e-1,
7.543500e+0,3.49e-1,
7.543600e+0,3.49e-1,
7.543700e+0,3.49e-1,
7.543800e+0,3.49e-1,
7.543900e+0,3.49e-1,
7.544000e+0,3.49e-1,
7.544100e+0,3.49e-1,
7.544200e+0,3.49e-1,
7.544300e+0,3.49e-1,
7.544400e+0,3.49e-1,
7.544500e+0,3.48e-1,
7.544600e+0,3.48e-1,
7.544700e+0,3.48e-1,
7.544800e+0,3.48e-1,
7.544900e+0,3.48e-1,
7.545000e+0,3.48e-1,
7.545100e+0,3.48e-1,
7.545200e+0,3.48e-1,
7.545300e+0,3.49e-1,
7.545400e+0,3.49e-1,
7.545500e+0,3.49e-1,
7.545600e+0,3.49e-1,
7.545700e+0,3.48e-1,
7.545800e+0,3.48e-1,
7.545900e+0,3.48e-1,
7.546000e+0,3.48e-1,
7.546100e+0,3.48e-1,
7.546200e+0,3.48e-1,
7.546300e+0,3.50e-1,
7.546400e+0,3.50e-1,
7.546500e+0,3.49e-1,
7.546600e+0,3.49e-1,
7.546700e+0,3.48e-1,
7.546800e+0,3.48e-1,
7.546900e+0,3.49e-1,
7.547000e+0,3.49e-1,
7.547100e+0,3.48e-1,
7.547200e+0,3.48e-1,
7.547300e+0,3.48e-1,
7.547400e+0,3.48e-1,
7.547500e+0,3.48e-1,
7.547600e+0,3.48e-1,
7.547700e+0,3.48e-1,
7.547800e+0,3.48e-1,
7.547900e+0,3.48e-1,
7.548000e+0,3.48e-1,
7.548100e+0,3.48e-1,
7.548200e+0,3.48e-1,
7.548300e+0,3.48e-1,
7.548400e+0,3.48e-1,
7.548500e+0,3.49e-1,
7.548600e+0,3.49e-1,
7.548700e+0,3.48e-1,
7.548800e+0,3.48e-1,
7.548900e+0,3.48e-1,
7.549000e+0,3.48e-1,
7.549100e+0,3.49e-1,
7.549200e+0,3.49e-1,
7.549300e+0,3.48e-1,
7.549400e+0,3.48e-1,
7.549500e+0,3.49e-1,
7.549600e+0,3.49e-1,
7.549700e+0,3.49e-1,
7.549800e+0,3.49e-1,
7.549900e+0,3.49e-1,
7.550000e+0,3.49e-1,
7.550100e+0,3.48e-1,
7.550200e+0,3.48e-1,
7.550300e+0,3.48e-1,
7.550400e+0,3.48e-1,
7.550500e+0,3.48e-1,
7.550600e+0,3.48e-1,
7.550700e+0,3.49e-1,
7.550800e+0,3.49e-1,
7.550900e+0,3.49e-1,
7.551000e+0,3.49e-1,
7.551100e+0,3.49e-1,
7.551200e+0,3.49e-1,
7.551300e+0,3.48e-1,
7.551400e+0,3.48e-1,
7.551500e+0,3.49e-1,
7.551600e+0,3.49e-1,
7.551700e+0,3.48e-1,
7.551800e+0,3.48e-1,
7.551900e+0,3.49e-1,
7.552000e+0,3.49e-1,
7.552100e+0,3.48e-1,
7.552200e+0,3.48e-1,
7.552300e+0,3.48e-1,
7.552400e+0,3.48e-1,
7.552500e+0,3.49e-1,
7.552600e+0,3.49e-1,
7.552700e+0,3.48e-1,
7.552800e+0,3.48e-1,
7.552900e+0,3.48e-1,
7.553000e+0,3.48e-1,
7.553100e+0,3.48e-1,
7.553200e+0,3.48e-1,
7.553300e+0,3.49e-1,
7.553400e+0,3.49e-1,
7.553500e+0,3.48e-1,
7.553600e+0,3.48e-1,
7.553700e+0,3.49e-1,
7.553800e+0,3.49e-1,
7.553900e+0,3.48e-1,
7.554000e+0,3.48e-1,
7.554100e+0,3.49e-1,
7.554200e+0,3.49e-1,
7.554300e+0,3.48e-1,
7.554400e+0,3.48e-1,
7.554500e+0,3.49e-1,
7.554600e+0,3.49e-1,
7.554700e+0,3.49e-1,
7.554800e+0,3.49e-1,
7.554900e+0,3.48e-1,
7.555000e+0,3.48e-1,
7.555100e+0,3.48e-1,
7.555200e+0,3.48e-1,
7.555300e+0,3.48e-1,
7.555400e+0,3.48e-1,
7.555500e+0,3.48e-1,
7.555600e+0,3.48e-1,
7.555700e+0,3.49e-1,
7.555800e+0,3.49e-1,
7.555900e+0,3.48e-1,
7.556000e+0,3.48e-1,
7.556100e+0,3.48e-1,
7.556200e+0,3.48e-1,
7.556300e+0,3.48e-1,
7.556400e+0,3.48e-1,
7.556500e+0,3.49e-1,
7.556600e+0,3.49e-1,
7.556700e+0,3.48e-1,
7.556800e+0,3.48e-1,
7.556900e+0,3.48e-1,
7.557000e+0,3.48e-1,
7.557100e+0,3.48e-1,
7.557200e+0,3.48e-1,
7.557300e+0,3.48e-1,
7.557400e+0,3.48e-1,
7.557500e+0,3.49e-1,
7.557600e+0,3.49e-1,
7.557700e+0,3.49e-1,
7.557800e+0,3.49e-1,
7.557900e+0,3.48e-1,
7.558000e+0,3.48e-1,
7.558100e+0,3.48e-1,
7.558200e+0,3.48e-1,
7.558300e+0,3.49e-1,
7.558400e+0,3.49e-1,
7.558500e+0,3.48e-1,
7.558600e+0,3.48e-1,
7.558700e+0,3.48e-1,
7.558800e+0,3.48e-1,
7.558900e+0,3.49e-1,
7.559000e+0,3.49e-1,
7.559100e+0,3.48e-1,
7.559200e+0,3.48e-1,
7.559300e+0,3.48e-1,
7.559400e+0,3.48e-1,
7.559500e+0,3.48e-1,
7.559600e+0,3.48e-1,
7.559700e+0,3.48e-1,
7.559800e+0,3.48e-1,
7.559900e+0,3.48e-1,
7.560000e+0,3.48e-1,
7.560100e+0,3.49e-1,
7.560200e+0,3.49e-1,
7.560300e+0,3.48e-1,
7.560400e+0,3.48e-1,
7.560500e+0,3.48e-1,
7.560600e+0,3.48e-1,
7.560700e+0,3.49e-1,
7.560800e+0,3.49e-1,
7.560900e+0,3.49e-1,
7.561000e+0,3.49e-1,
7.561100e+0,3.48e-1,
7.561200e+0,3.48e-1,
7.561300e+0,3.48e-1,
7.561400e+0,3.48e-1,
7.561500e+0,3.48e-1,
7.561600e+0,3.48e-1,
7.561700e+0,3.48e-1,
7.561800e+0,3.48e-1,
7.561900e+0,3.48e-1,
7.562000e+0,3.48e-1,
7.562100e+0,3.48e-1,
7.562200e+0,3.48e-1,
7.562300e+0,3.48e-1,
7.562400e+0,3.48e-1,
7.562500e+0,3.48e-1,
7.562600e+0,3.48e-1,
7.562700e+0,3.48e-1,
7.562800e+0,3.48e-1,
7.562900e+0,3.48e-1,
7.563000e+0,3.48e-1,
7.563100e+0,3.48e-1,
7.563200e+0,3.48e-1,
7.563300e+0,3.48e-1,
7.563400e+0,3.48e-1,
7.563500e+0,3.48e-1,
7.563600e+0,3.48e-1,
7.563700e+0,3.49e-1,
7.563800e+0,3.49e-1,
7.563900e+0,3.48e-1,
7.564000e+0,3.48e-1,
7.564100e+0,3.49e-1,
7.564200e+0,3.49e-1,
7.564300e+0,3.49e-1,
7.564400e+0,3.49e-1,
7.564500e+0,3.48e-1,
7.564600e+0,3.48e-1,
7.564700e+0,3.49e-1,
7.564800e+0,3.49e-1,
7.564900e+0,3.49e-1,
7.565000e+0,3.49e-1,
7.565100e+0,3.48e-1,
7.565200e+0,3.48e-1,
7.565300e+0,3.49e-1,
7.565400e+0,3.49e-1,
7.565500e+0,3.48e-1,
7.565600e+0,3.48e-1,
7.565700e+0,3.49e-1,
7.565800e+0,3.49e-1,
7.565900e+0,3.48e-1,
7.566000e+0,3.48e-1,
7.566100e+0,3.49e-1,
7.566200e+0,3.49e-1,
7.566300e+0,3.48e-1,
7.566400e+0,3.48e-1,
7.566500e+0,3.48e-1,
7.566600e+0,3.48e-1,
7.566700e+0,3.48e-1,
7.566800e+0,3.48e-1,
7.566900e+0,3.48e-1,
7.567000e+0,3.48e-1,
7.567100e+0,3.48e-1,
7.567200e+0,3.48e-1,
7.567300e+0,3.48e-1,
7.567400e+0,3.48e-1,
7.567500e+0,3.48e-1,
7.567600e+0,3.48e-1,
7.567700e+0,3.48e-1,
7.567800e+0,3.48e-1,
7.567900e+0,3.49e-1,
7.568000e+0,3.49e-1,
7.568100e+0,3.49e-1,
7.568200e+0,3.49e-1,
7.568300e+0,3.49e-1,
7.568400e+0,3.49e-1,
7.568500e+0,3.48e-1,
7.568600e+0,3.48e-1,
7.568700e+0,3.48e-1,
7.568800e+0,3.48e-1,
7.568900e+0,3.48e-1,
7.569000e+0,3.48e-1,
7.569100e+0,3.49e-1,
7.569200e+0,3.49e-1,
7.569300e+0,3.48e-1,
7.569400e+0,3.48e-1,
7.569500e+0,3.49e-1,
7.569600e+0,3.49e-1,
7.569700e+0,3.48e-1,
7.569800e+0,3.48e-1,
7.569900e+0,3.48e-1,
7.570000e+0,3.48e-1,
7.570100e+0,3.48e-1,
7.570200e+0,3.48e-1,
7.570300e+0,3.48e-1,
7.570400e+0,3.48e-1,
7.570500e+0,3.48e-1,
7.570600e+0,3.48e-1,
7.570700e+0,3.48e-1,
7.570800e+0,3.48e-1,
7.570900e+0,3.48e-1,
7.571000e+0,3.48e-1,
7.571100e+0,3.48e-1,
7.571200e+0,3.48e-1,
7.571300e+0,3.48e-1,
7.571400e+0,3.48e-1,
7.571500e+0,3.48e-1,
7.571600e+0,3.48e-1,
7.571700e+0,3.48e-1,
7.571800e+0,3.48e-1,
7.571900e+0,3.49e-1,
7.572000e+0,3.49e-1,
7.572100e+0,3.48e-1,
7.572200e+0,3.48e-1,
7.572300e+0,3.48e-1,
7.572400e+0,3.48e-1,
7.572500e+0,3.49e-1,
7.572600e+0,3.49e-1,
7.572700e+0,3.48e-1,
7.572800e+0,3.48e-1,
7.572900e+0,3.48e-1,
7.573000e+0,3.48e-1,
7.573100e+0,3.48e-1,
7.573200e+0,3.48e-1,
7.573300e+0,3.48e-1,
7.573400e+0,3.48e-1,
7.573500e+0,3.48e-1,
7.573600e+0,3.48e-1,
7.573700e+0,3.48e-1,
7.573800e+0,3.48e-1,
7.573900e+0,3.48e-1,
7.574000e+0,3.48e-1,
7.574100e+0,3.48e-1,
7.574200e+0,3.48e-1,
7.574300e+0,3.48e-1,
7.574400e+0,3.48e-1,
7.574500e+0,3.49e-1,
7.574600e+0,3.49e-1,
7.574700e+0,3.48e-1,
7.574800e+0,3.48e-1,
7.574900e+0,3.48e-1,
7.575000e+0,3.48e-1,
7.575100e+0,3.49e-1,
7.575200e+0,3.49e-1,
7.575300e+0,3.48e-1,
7.575400e+0,3.48e-1,
7.575500e+0,3.48e-1,
7.575600e+0,3.48e-1,
7.575700e+0,3.49e-1,
7.575800e+0,3.49e-1,
7.575900e+0,3.48e-1,
7.576000e+0,3.48e-1,
7.576100e+0,3.48e-1,
7.576200e+0,3.48e-1,
7.576300e+0,3.48e-1,
7.576400e+0,3.48e-1,
7.576500e+0,3.48e-1,
7.576600e+0,3.48e-1,
7.576700e+0,3.48e-1,
7.576800e+0,3.48e-1,
7.576900e+0,3.48e-1,
7.577000e+0,3.48e-1,
7.577100e+0,3.48e-1,
7.577200e+0,3.48e-1,
7.577300e+0,3.48e-1,
7.577400e+0,3.48e-1,
7.577500e+0,3.48e-1,
7.577600e+0,3.48e-1,
7.577700e+0,3.48e-1,
7.577800e+0,3.48e-1,
7.577900e+0,3.48e-1,
7.578000e+0,3.48e-1,
7.578100e+0,3.48e-1,
7.578200e+0,3.48e-1,
7.578300e+0,3.48e-1,
7.578400e+0,3.48e-1,
7.578500e+0,3.48e-1,
7.578600e+0,3.48e-1,
7.578700e+0,3.49e-1,
7.578800e+0,3.49e-1,
7.578900e+0,3.48e-1,
7.579000e+0,3.48e-1,
7.579100e+0,3.48e-1,
7.579200e+0,3.48e-1,
7.579300e+0,3.48e-1,
7.579400e+0,3.48e-1,
7.579500e+0,3.48e-1,
7.579600e+0,3.48e-1,
7.579700e+0,3.48e-1,
7.579800e+0,3.48e-1,
7.579900e+0,3.48e-1,
7.580000e+0,3.48e-1,
7.580100e+0,3.48e-1,
7.580200e+0,3.48e-1,
7.580300e+0,3.49e-1,
7.580400e+0,3.49e-1,
7.580500e+0,3.48e-1,
7.580600e+0,3.48e-1,
7.580700e+0,3.48e-1,
7.580800e+0,3.48e-1,
7.580900e+0,3.48e-1,
7.581000e+0,3.48e-1,
7.581100e+0,3.48e-1,
7.581200e+0,3.48e-1,
7.581300e+0,3.48e-1,
7.581400e+0,3.48e-1,
7.581500e+0,3.48e-1,
7.581600e+0,3.48e-1,
7.581700e+0,3.48e-1,
7.581800e+0,3.48e-1,
7.581900e+0,3.48e-1,
7.582000e+0,3.48e-1,
7.582100e+0,3.48e-1,
7.582200e+0,3.48e-1,
7.582300e+0,3.48e-1,
7.582400e+0,3.48e-1,
7.582500e+0,3.48e-1,
7.582600e+0,3.48e-1,
7.582700e+0,3.48e-1,
7.582800e+0,3.48e-1,
7.582900e+0,3.48e-1,
7.583000e+0,3.48e-1,
7.583100e+0,3.48e-1,
7.583200e+0,3.48e-1,
7.583300e+0,3.48e-1,
7.583400e+0,3.48e-1,
7.583500e+0,3.48e-1,
7.583600e+0,3.48e-1,
7.583700e+0,3.48e-1,
7.583800e+0,3.48e-1,
7.583900e+0,3.48e-1,
7.584000e+0,3.48e-1,
7.584100e+0,3.48e-1,
7.584200e+0,3.48e-1,
7.584300e+0,3.48e-1,
7.584400e+0,3.48e-1,
7.584500e+0,3.48e-1,
7.584600e+0,3.48e-1,
7.584700e+0,3.48e-1,
7.584800e+0,3.48e-1,
7.584900e+0,3.48e-1,
